PE IR       SPECTRUM    SPECTRUM    ASCII       PEDS        1.60        
  -1
10LEN1.ASC
14/01/10
11:00:25.00
14/01/10
11:00:25.00
Admin

400.000000
8









2002,4.07    
MIRTGS : RIGHTBACK : INTERNAL 2
MIR : ON : INTERNAL 2
OPTKBR

0.200000
1
4.000000
STRONG
RATIO
SPECTRUM
UNLOCKED 256

DOUBLE
8
FORWARD
1
0
0


1.000000
RATIO


1
0
TRUE
41620
0
LEFT NOT FITTED RIGHT NOT FITTED 0
NONE
NONE
15600
21.200000
8.970000
41618
TRUE
1 0 8 72 0 0 0 0 

15798.013000






#HDR
-1
-1
#GR
CM-1
%T
0.00002384185791015625
0.0
4000.000000
-1.000000
3601
8
119.461393
8.061075
#DATA
4000.000000	118.767356 
3999.000000	118.778133 
3998.000000	118.788242 
3997.000000	118.792581 
3996.000000	118.792223 
3995.000000	118.790364 
3994.000000	118.789339 
3993.000000	118.790888 
3992.000000	118.795537 
3991.000000	118.801856 
3990.000000	118.808221 
3989.000000	118.815016 
3988.000000	118.825030 
3987.000000	118.840193 
3986.000000	118.857836 
3985.000000	118.871450 
3984.000000	118.876791 
3983.000000	118.875074 
3982.000000	118.869566 
3981.000000	118.863701 
3980.000000	118.861675 
3979.000000	118.867015 
3978.000000	118.878054 
3977.000000	118.888950 
3976.000000	118.894863 
3975.000000	118.894791 
3974.000000	118.889331 
3973.000000	118.880224 
3972.000000	118.871521 
3971.000000	118.867111 
3970.000000	118.866920 
3969.000000	118.868684 
3968.000000	118.871831 
3967.000000	118.876886 
3966.000000	118.883037 
3965.000000	118.889307 
3964.000000	118.895125 
3963.000000	118.896818 
3962.000000	118.889689 
3961.000000	118.877863 
3960.000000	118.872761 
3959.000000	118.877410 
3958.000000	118.882679 
3957.000000	118.883728 
3956.000000	118.886971 
3955.000000	118.897175 
3954.000000	118.909692 
3953.000000	118.920302 
3952.000000	118.929648 
3951.000000	118.934369 
3950.000000	118.926668 
3949.000000	118.906378 
3948.000000	118.887281 
3947.000000	118.885040 
3946.000000	118.901538 
3945.000000	118.922162 
3944.000000	118.928956 
3943.000000	118.917202 
3942.000000	118.899893 
3941.000000	118.894815 
3940.000000	118.908023 
3939.000000	118.931508 
3938.000000	118.955779 
3937.000000	118.979239 
3936.000000	119.004869 
3935.000000	119.029998 
3934.000000	119.043684 
3933.000000	119.037842 
3932.000000	119.019913 
3931.000000	119.009089 
3930.000000	119.017124 
3929.000000	119.040799 
3928.000000	119.071626 
3927.000000	119.101929 
3926.000000	119.119977 
3925.000000	119.117975 
3924.000000	119.107127 
3923.000000	119.108414 
3922.000000	119.125747 
3921.000000	119.145298 
3920.000000	119.158029 
3919.000000	119.163608 
3918.000000	119.157433 
3917.000000	119.138503 
3916.000000	119.123387 
3915.000000	119.130468 
3914.000000	119.155144 
3913.000000	119.180369 
3912.000000	119.200658 
3911.000000	119.221115 
3910.000000	119.243121 
3909.000000	119.265055 
3908.000000	119.286847 
3907.000000	119.299912 
3906.000000	119.287419 
3905.000000	119.244670 
3904.000000	119.190692 
3903.000000	119.152259 
3902.000000	119.139170 
3901.000000	119.139003 
3900.000000	119.137120 
3899.000000	119.137072 
3898.000000	119.153714 
3897.000000	119.191145 
3896.000000	119.240164 
3895.000000	119.291114 
3894.000000	119.332242 
3893.000000	119.342422 
3892.000000	119.309878 
3891.000000	119.259834 
3890.000000	119.239878 
3889.000000	119.269967 
3888.000000	119.319033 
3887.000000	119.338083 
3886.000000	119.312047 
3885.000000	119.272589 
3884.000000	119.259834 
3883.000000	119.274449 
3882.000000	119.279885 
3881.000000	119.249868 
3880.000000	119.203090 
3879.000000	119.184970 
3878.000000	119.221711 
3877.000000	119.289326 
3876.000000	119.332623 
3875.000000	119.322419 
3874.000000	119.287896 
3873.000000	119.273972 
3872.000000	119.277024 
3871.000000	119.257187 
3870.000000	119.208312 
3869.000000	119.177293 
3868.000000	119.202613 
3867.000000	119.263386 
3866.000000	119.303536 
3865.000000	119.294404 
3864.000000	119.260668 
3863.000000	119.243383 
3862.000000	119.253182 
3861.000000	119.277167 
3860.000000	119.312405 
3859.000000	119.359898 
3858.000000	119.403052 
3857.000000	119.428038 
3856.000000	119.436430 
3855.000000	119.405603 
3854.000000	119.297361 
3853.000000	119.147825 
3852.000000	119.070720 
3851.000000	119.119048 
3850.000000	119.219493 
3849.000000	119.289374 
3848.000000	119.334816 
3847.000000	119.391775 
3846.000000	119.445943 
3845.000000	119.461393 
3844.000000	119.438838 
3843.000000	119.409704 
3842.000000	119.392657 
3841.000000	119.375848 
3840.000000	119.340753 
3839.000000	119.293546 
3838.000000	119.261837 
3837.000000	119.262456 
3836.000000	119.286274 
3835.000000	119.314408 
3834.000000	119.332957 
3833.000000	119.334530 
3832.000000	119.324159 
3831.000000	119.320130 
3830.000000	119.336557 
3829.000000	119.363379 
3828.000000	119.375038 
3827.000000	119.361805 
3826.000000	119.345307 
3825.000000	119.355154 
3824.000000	119.388556 
3823.000000	119.404697 
3822.000000	119.365048 
3821.000000	119.285941 
3820.000000	119.237017 
3819.000000	119.263648 
3818.000000	119.322538 
3817.000000	119.333839 
3816.000000	119.286990 
3815.000000	119.247126 
3814.000000	119.260644 
3813.000000	119.307231 
3812.000000	119.351196 
3811.000000	119.389128 
3810.000000	119.427275 
3809.000000	119.446706 
3808.000000	119.420361 
3807.000000	119.357705 
3806.000000	119.310855 
3805.000000	119.321227 
3804.000000	119.367146 
3803.000000	119.379472 
3802.000000	119.320297 
3801.000000	119.234657 
3800.000000	119.202041 
3799.000000	119.240665 
3798.000000	119.289970 
3797.000000	119.297242 
3796.000000	119.279885 
3795.000000	119.280958 
3794.000000	119.306492 
3793.000000	119.337344 
3792.000000	119.364547 
3791.000000	119.387912 
3790.000000	119.403338 
3789.000000	119.409346 
3788.000000	119.410347 
3787.000000	119.406247 
3786.000000	119.391703 
3785.000000	119.368433 
3784.000000	119.352412 
3783.000000	119.361591 
3782.000000	119.392967 
3781.000000	119.417929 
3780.000000	119.410800 
3779.000000	119.377326 
3778.000000	119.346857 
3777.000000	119.339728 
3776.000000	119.351625 
3775.000000	119.368433 
3774.000000	119.387745 
3773.000000	119.412803 
3772.000000	119.430589 
3771.000000	119.417619 
3770.000000	119.375133 
3769.000000	119.337677 
3768.000000	119.331312 
3767.000000	119.342851 
3766.000000	119.343471 
3765.000000	119.329905 
3764.000000	119.327712 
3763.000000	119.352817 
3762.000000	119.384789 
3761.000000	119.389081 
3760.000000	119.357776 
3759.000000	119.315361 
3758.000000	119.286346 
3757.000000	119.279551 
3756.000000	119.299864 
3755.000000	119.342541 
3754.000000	119.375991 
3753.000000	119.357514 
3752.000000	119.276857 
3751.000000	119.169521 
3750.000000	119.090795 
3749.000000	119.085431 
3748.000000	119.154763 
3747.000000	119.237780 
3746.000000	119.255685 
3745.000000	119.198894 
3744.000000	119.141030 
3743.000000	119.149160 
3742.000000	119.214415 
3741.000000	119.287419 
3740.000000	119.346737 
3739.000000	119.402122 
3738.000000	119.448351 
3737.000000	119.449806 
3736.000000	119.384384 
3735.000000	119.286870 
3734.000000	119.219493 
3733.000000	119.203448 
3732.000000	119.214558 
3731.000000	119.237208 
3730.000000	119.278216 
3729.000000	119.327497 
3728.000000	119.352889 
3727.000000	119.342064 
3726.000000	119.314956 
3725.000000	119.292140 
3724.000000	119.277453 
3723.000000	119.267439 
3722.000000	119.259428 
3721.000000	119.251632 
3720.000000	119.244790 
3719.000000	119.242358 
3718.000000	119.244623 
3717.000000	119.252848 
3716.000000	119.274830 
3715.000000	119.311809 
3714.000000	119.338631 
3713.000000	119.318461 
3712.000000	119.247245 
3711.000000	119.165444 
3710.000000	119.116759 
3709.000000	119.111299 
3708.000000	119.134235 
3707.000000	119.170570 
3706.000000	119.210147 
3705.000000	119.242644 
3704.000000	119.257164 
3703.000000	119.244647 
3702.000000	119.203996 
3701.000000	119.153261 
3700.000000	119.123888 
3699.000000	119.129085 
3698.000000	119.145703 
3697.000000	119.145584 
3696.000000	119.130969 
3695.000000	119.120502 
3694.000000	119.117522 
3693.000000	119.111776 
3692.000000	119.096159 
3691.000000	119.060444 
3690.000000	118.991756 
3689.000000	118.903541 
3688.000000	118.836665 
3687.000000	118.817043 
3686.000000	118.830442 
3685.000000	118.847060 
3684.000000	118.855595 
3683.000000	118.864536 
3682.000000	118.876934 
3681.000000	118.880200 
3680.000000	118.869900 
3679.000000	118.864345 
3678.000000	118.863940 
3677.000000	118.821430 
3676.000000	118.708395 
3675.000000	118.590760 
3674.000000	118.566250 
3673.000000	118.635463 
3672.000000	118.698120 
3671.000000	118.677902 
3670.000000	118.598675 
3669.000000	118.535733 
3668.000000	118.532967 
3667.000000	118.575549 
3666.000000	118.622136 
3665.000000	118.649482 
3664.000000	118.663763 
3663.000000	118.677163 
3662.000000	118.692684 
3661.000000	118.709492 
3660.000000	118.730831 
3659.000000	118.752789 
3658.000000	118.751573 
3657.000000	118.706440 
3656.000000	118.637275 
3655.000000	118.597960 
3654.000000	118.622231 
3653.000000	118.690395 
3652.000000	118.751597 
3651.000000	118.757462 
3650.000000	118.680715 
3649.000000	118.541860 
3648.000000	118.414616 
3647.000000	118.368005 
3646.000000	118.402290 
3645.000000	118.464756 
3644.000000	118.516087 
3643.000000	118.554449 
3642.000000	118.585991 
3641.000000	118.610000 
3640.000000	118.628549 
3639.000000	118.643331 
3638.000000	118.651461 
3637.000000	118.654894 
3636.000000	118.662834 
3635.000000	118.670940 
3634.000000	118.667078 
3633.000000	118.665051 
3632.000000	118.686771 
3631.000000	118.703246 
3630.000000	118.657732 
3629.000000	118.560671 
3628.000000	118.496370 
3627.000000	118.516659 
3626.000000	118.585801 
3625.000000	118.649339 
3624.000000	118.697881 
3623.000000	118.744349 
3622.000000	118.779969 
3621.000000	118.778467 
3620.000000	118.730568 
3619.000000	118.662834 
3618.000000	118.618774 
3617.000000	118.619894 
3616.000000	118.647813 
3615.000000	118.668127 
3614.000000	118.664526 
3613.000000	118.649435 
3612.000000	118.648481 
3611.000000	118.673682 
3610.000000	118.706321 
3609.000000	118.715858 
3608.000000	118.700814 
3607.000000	118.692922 
3606.000000	118.716430 
3605.000000	118.760418 
3604.000000	118.800020 
3603.000000	118.824720 
3602.000000	118.835854 
3601.000000	118.836617 
3600.000000	118.835163 
3599.000000	118.839430 
3598.000000	118.842649 
3597.000000	118.830299 
3596.000000	118.802881 
3595.000000	118.776249 
3594.000000	118.761587 
3593.000000	118.763232 
3592.000000	118.785381 
3591.000000	118.819761 
3590.000000	118.835926 
3589.000000	118.809604 
3588.000000	118.754148 
3587.000000	118.708205 
3586.000000	118.695664 
3585.000000	118.710994 
3584.000000	118.735361 
3583.000000	118.751597 
3582.000000	118.748927 
3581.000000	118.726444 
3580.000000	118.691468 
3579.000000	118.655824 
3578.000000	118.629026 
3577.000000	118.611431 
3576.000000	118.596625 
3575.000000	118.580865 
3574.000000	118.567752 
3573.000000	118.563723 
3572.000000	118.574166 
3571.000000	118.600726 
3570.000000	118.629431 
3569.000000	118.626093 
3568.000000	118.566370 
3567.000000	118.470358 
3566.000000	118.389892 
3565.000000	118.360781 
3564.000000	118.379116 
3563.000000	118.418717 
3562.000000	118.451666 
3561.000000	118.459320 
3560.000000	118.442654 
3559.000000	118.421411 
3558.000000	118.412041 
3557.000000	118.412613 
3556.000000	118.414092 
3555.000000	118.415212 
3554.000000	118.417429 
3553.000000	118.417239 
3552.000000	118.414545 
3551.000000	118.417668 
3550.000000	118.431496 
3549.000000	118.451118 
3548.000000	118.470668 
3547.000000	118.488931 
3546.000000	118.502426 
3545.000000	118.505072 
3544.000000	118.497633 
3543.000000	118.485617 
3542.000000	118.469524 
3541.000000	118.448853 
3540.000000	118.433904 
3539.000000	118.437290 
3538.000000	118.455457 
3537.000000	118.470406 
3536.000000	118.469119 
3535.000000	118.453764 
3534.000000	118.434333 
3533.000000	118.419456 
3532.000000	118.412327 
3531.000000	118.408632 
3530.000000	118.400120 
3529.000000	118.384289 
3528.000000	118.370532 
3527.000000	118.374466 
3526.000000	118.402671 
3525.000000	118.443012 
3524.000000	118.469953 
3523.000000	118.463635 
3522.000000	118.425917 
3521.000000	118.379068 
3520.000000	118.346142 
3519.000000	118.333840 
3518.000000	118.335342 
3517.000000	118.344879 
3516.000000	118.362903 
3515.000000	118.386244 
3514.000000	118.400454 
3513.000000	118.388152 
3512.000000	118.344044 
3511.000000	118.280148 
3510.000000	118.218231 
3509.000000	118.176150 
3508.000000	118.161416 
3507.000000	118.172836 
3506.000000	118.206119 
3505.000000	118.251585 
3504.000000	118.291234 
3503.000000	118.305325 
3502.000000	118.288254 
3501.000000	118.256092 
3500.000000	118.235349 
3499.000000	118.237781 
3498.000000	118.248629 
3497.000000	118.241381 
3496.000000	118.207097 
3495.000000	118.157911 
3494.000000	118.103146 
3493.000000	118.040060 
3492.000000	117.970967 
3491.000000	117.912030 
3490.000000	117.876601 
3489.000000	117.861318 
3488.000000	117.850542 
3487.000000	117.823362 
3486.000000	117.760586 
3485.000000	117.660975 
3484.000000	117.552828 
3483.000000	117.475771 
3482.000000	117.445015 
3481.000000	117.438220 
3480.000000	117.414760 
3479.000000	117.345738 
3478.000000	117.230296 
3477.000000	117.089605 
3476.000000	116.949653 
3475.000000	116.825914 
3474.000000	116.726088 
3473.000000	116.657829 
3472.000000	116.628837 
3471.000000	116.635012 
3470.000000	116.655778 
3469.000000	116.663384 
3468.000000	116.640639 
3467.000000	116.587233 
3466.000000	116.516470 
3465.000000	116.445922 
3464.000000	116.396450 
3463.000000	116.389465 
3462.000000	116.433000 
3461.000000	116.509747 
3460.000000	116.587185 
3459.000000	116.644716 
3458.000000	116.686511 
3457.000000	116.729974 
3456.000000	116.788506 
3455.000000	116.865277 
3454.000000	116.954612 
3453.000000	117.047786 
3452.000000	117.139172 
3451.000000	117.229890 
3450.000000	117.321896 
3449.000000	117.412805 
3448.000000	117.495179 
3447.000000	117.562961 
3446.000000	117.615771 
3445.000000	117.658805 
3444.000000	117.699861 
3443.000000	117.743277 
3442.000000	117.788457 
3441.000000	117.834639 
3440.000000	117.887997 
3439.000000	117.954611 
3438.000000	118.027091 
3437.000000	118.087124 
3436.000000	118.125271 
3435.000000	118.145465 
3434.000000	118.153595 
3433.000000	118.154525 
3432.000000	118.158936 
3431.000000	118.175292 
3430.000000	118.195366 
3429.000000	118.203473 
3428.000000	118.197274 
3427.000000	118.185758 
3426.000000	118.172788 
3425.000000	118.159627 
3424.000000	118.153595 
3423.000000	118.160414 
3422.000000	118.172121 
3421.000000	118.177247 
3420.000000	118.174862 
3419.000000	118.172478 
3418.000000	118.175768 
3417.000000	118.188047 
3416.000000	118.211627 
3415.000000	118.242669 
3414.000000	118.270230 
3413.000000	118.284869 
3412.000000	118.286752 
3411.000000	118.283820 
3410.000000	118.283343 
3409.000000	118.285346 
3408.000000	118.286275 
3407.000000	118.285226 
3406.000000	118.286371 
3405.000000	118.294405 
3404.000000	118.311166 
3403.000000	118.335819 
3402.000000	118.364024 
3401.000000	118.387317 
3400.000000	118.397140 
3399.000000	118.391847 
3398.000000	118.377161 
3397.000000	118.362164 
3396.000000	118.355894 
3395.000000	118.363881 
3394.000000	118.382239 
3393.000000	118.398737 
3392.000000	118.402814 
3391.000000	118.393158 
3390.000000	118.373107 
3389.000000	118.346953 
3388.000000	118.322587 
3387.000000	118.309473 
3386.000000	118.308687 
3385.000000	118.312573 
3384.000000	118.318009 
3383.000000	118.328356 
3382.000000	118.342137 
3381.000000	118.351602 
3380.000000	118.354773 
3379.000000	118.357920 
3378.000000	118.364143 
3377.000000	118.370032 
3376.000000	118.373918 
3375.000000	118.378043 
3374.000000	118.384099 
3373.000000	118.394207 
3372.000000	118.412828 
3371.000000	118.439459 
3370.000000	118.463659 
3369.000000	118.474888 
3368.000000	118.473219 
3367.000000	118.463563 
3366.000000	118.447709 
3365.000000	118.428349 
3364.000000	118.413901 
3363.000000	118.411087 
3362.000000	118.416643 
3361.000000	118.421840 
3360.000000	118.420362 
3359.000000	118.411064 
3358.000000	118.396472 
3357.000000	118.382048 
3356.000000	118.374323 
3355.000000	118.377065 
3354.000000	118.389892 
3353.000000	118.409347 
3352.000000	118.430137 
3351.000000	118.446922 
3350.000000	118.454837 
3349.000000	118.451595 
3348.000000	118.439483 
3347.000000	118.425703 
3346.000000	118.417572 
3345.000000	118.417143 
3344.000000	118.422317 
3343.000000	118.430662 
3342.000000	118.439865 
3341.000000	118.447017 
3340.000000	118.451309 
3339.000000	118.454098 
3338.000000	118.453121 
3337.000000	118.442130 
3336.000000	118.421578 
3335.000000	118.401336 
3334.000000	118.389153 
3333.000000	118.382477 
3332.000000	118.376946 
3331.000000	118.373608 
3330.000000	118.374252 
3329.000000	118.379378 
3328.000000	118.391752 
3327.000000	118.410873 
3326.000000	118.424582 
3325.000000	118.419194 
3324.000000	118.399024 
3323.000000	118.379354 
3322.000000	118.364500 
3321.000000	118.348073 
3320.000000	118.331003 
3319.000000	118.320536 
3318.000000	118.316102 
3317.000000	118.312382 
3316.000000	118.310856 
3315.000000	118.315148 
3314.000000	118.320417 
3313.000000	118.320941 
3312.000000	118.321037 
3311.000000	118.327784 
3310.000000	118.339896 
3309.000000	118.350744 
3308.000000	118.356418 
3307.000000	118.355607 
3306.000000	118.346810 
3305.000000	118.329453 
3304.000000	118.305230 
3303.000000	118.276453 
3302.000000	118.245768 
3301.000000	118.217968 
3300.000000	118.198418 
3299.000000	118.189406 
3298.000000	118.187952 
3297.000000	118.188834 
3296.000000	118.187570 
3295.000000	118.183064 
3294.000000	118.176460 
3293.000000	118.168497 
3292.000000	118.157148 
3291.000000	118.138647 
3290.000000	118.110966 
3289.000000	118.078422 
3288.000000	118.051576 
3287.000000	118.040919 
3286.000000	118.046593 
3285.000000	118.058228 
3284.000000	118.067026 
3283.000000	118.073773 
3282.000000	118.082165 
3281.000000	118.092012 
3280.000000	118.104004 
3279.000000	118.122172 
3278.000000	118.145895 
3277.000000	118.168735 
3276.000000	118.188524 
3275.000000	118.209600 
3274.000000	118.232417 
3273.000000	118.251466 
3272.000000	118.265318 
3271.000000	118.276643 
3270.000000	118.283534 
3269.000000	118.281841 
3268.000000	118.275141 
3267.000000	118.271541 
3266.000000	118.271589 
3265.000000	118.270373 
3264.000000	118.268537 
3263.000000	118.269848 
3262.000000	118.272376 
3261.000000	118.272304 
3260.000000	118.271899 
3259.000000	118.276190 
3258.000000	118.284606 
3257.000000	118.293881 
3256.000000	118.302583 
3255.000000	118.308401 
3254.000000	118.307065 
3253.000000	118.300056 
3252.000000	118.295478 
3251.000000	118.297481 
3250.000000	118.302512 
3249.000000	118.307209 
3248.000000	118.311667 
3247.000000	118.312835 
3246.000000	118.304014 
3245.000000	118.284440 
3244.000000	118.262171 
3243.000000	118.245720 
3242.000000	118.236851 
3241.000000	118.231654 
3240.000000	118.227577 
3239.000000	118.225455 
3238.000000	118.226575 
3237.000000	118.229126 
3236.000000	118.231654 
3235.000000	118.235325 
3234.000000	118.237948 
3233.000000	118.231034 
3232.000000	118.211698 
3231.000000	118.189692 
3230.000000	118.175125 
3229.000000	118.166017 
3228.000000	118.156123 
3227.000000	118.144750 
3226.000000	118.131780 
3225.000000	118.114423 
3224.000000	118.096685 
3223.000000	118.088579 
3222.000000	118.090963 
3221.000000	118.092894 
3220.000000	118.088078 
3219.000000	118.080282 
3218.000000	118.071317 
3217.000000	118.056750 
3216.000000	118.037295 
3215.000000	118.019580 
3214.000000	118.005537 
3213.000000	117.992591 
3212.000000	117.982196 
3211.000000	117.976832 
3210.000000	117.971134 
3209.000000	117.958402 
3208.000000	117.941021 
3207.000000	117.924499 
3206.000000	117.907643 
3205.000000	117.888498 
3204.000000	117.871880 
3203.000000	117.861247 
3202.000000	117.850565 
3201.000000	117.832684 
3200.000000	117.809295 
3199.000000	117.786431 
3198.000000	117.766356 
3197.000000	117.747950 
3196.000000	117.731142 
3195.000000	117.716312 
3194.000000	117.702507 
3193.000000	117.687749 
3192.000000	117.671418 
3191.000000	117.655348 
3190.000000	117.640542 
3189.000000	117.624473 
3188.000000	117.603611 
3187.000000	117.579102 
3186.000000	117.555284 
3185.000000	117.533779 
3184.000000	117.513465 
3183.000000	117.494964 
3182.000000	117.479109 
3181.000000	117.463994 
3180.000000	117.448616 
3179.000000	117.436122 
3178.000000	117.426943 
3177.000000	117.415642 
3176.000000	117.399907 
3175.000000	117.386531 
3174.000000	117.380142 
3173.000000	117.376017 
3172.000000	117.369842 
3171.000000	117.365002 
3170.000000	117.363619 
3169.000000	117.361235 
3168.000000	117.356371 
3167.000000	117.354035 
3166.000000	117.355203 
3165.000000	117.354488 
3164.000000	117.350506 
3163.000000	117.346715 
3162.000000	117.341852 
3161.000000	117.331933 
3160.000000	117.321038 
3159.000000	117.317008 
3158.000000	117.318773 
3157.000000	117.319369 
3156.000000	117.319011 
3155.000000	117.322921 
3154.000000	117.329406 
3153.000000	117.331242 
3152.000000	117.325949 
3151.000000	117.315411 
3150.000000	117.300176 
3149.000000	117.281961 
3148.000000	117.265510 
3147.000000	117.252779 
3146.000000	117.239689 
3145.000000	117.223477 
3144.000000	117.207908 
3143.000000	117.197537 
3142.000000	117.192530 
3141.000000	117.191410 
3140.000000	117.192339 
3139.000000	117.190694 
3138.000000	117.179727 
3137.000000	117.156815 
3136.000000	117.126655 
3135.000000	117.096948 
3134.000000	117.071986 
3133.000000	117.051196 
3132.000000	117.033767 
3131.000000	117.021584 
3130.000000	117.013335 
3129.000000	117.000460 
3128.000000	116.976165 
3127.000000	116.945385 
3126.000000	116.917872 
3125.000000	116.895699 
3124.000000	116.876101 
3123.000000	116.859030 
3122.000000	116.844081 
3121.000000	116.825866 
3120.000000	116.801643 
3119.000000	116.776275 
3118.000000	116.752743 
3117.000000	116.726565 
3116.000000	116.695380 
3115.000000	116.663479 
3114.000000	116.632342 
3113.000000	116.598129 
3112.000000	116.562151 
3111.000000	116.530632 
3110.000000	116.501998 
3109.000000	116.467142 
3108.000000	116.423153 
3107.000000	116.376137 
3106.000000	116.329574 
3105.000000	116.282749 
3104.000000	116.238236 
3103.000000	116.199326 
3102.000000	116.160821 
3101.000000	116.115903 
3100.000000	116.066551 
3099.000000	116.017556 
3098.000000	115.965509 
3097.000000	115.906143 
3096.000000	115.843510 
3095.000000	115.784621 
3094.000000	115.728783 
3093.000000	115.674519 
3092.000000	115.623331 
3091.000000	115.574169 
3090.000000	115.517401 
3089.000000	115.446186 
3088.000000	115.363931 
3087.000000	115.280508 
3086.000000	115.200090 
3085.000000	115.119552 
3084.000000	115.031957 
3083.000000	114.932179 
3082.000000	114.818596 
3081.000000	114.691448 
3080.000000	114.552044 
3079.000000	114.402723 
3078.000000	114.244008 
3077.000000	114.072942 
3076.000000	113.886284 
3075.000000	113.684916 
3074.000000	113.472366 
3073.000000	113.250994 
3072.000000	113.024425 
3071.000000	112.801194 
3070.000000	112.588310 
3069.000000	112.386322 
3068.000000	112.195324 
3067.000000	112.020516 
3066.000000	111.865162 
3065.000000	111.726975 
3064.000000	111.608195 
3063.000000	111.516976 
3062.000000	111.453580 
3061.000000	111.405754 
3060.000000	111.365079 
3059.000000	111.331462 
3058.000000	111.298871 
3057.000000	111.251997 
3056.000000	111.183333 
3055.000000	111.098146 
3054.000000	110.999011 
3053.000000	110.881209 
3052.000000	110.741162 
3051.000000	110.579824 
3050.000000	110.391402 
3049.000000	110.172748 
3048.000000	109.927177 
3047.000000	109.666085 
3046.000000	109.384417 
3045.000000	109.076380 
3044.000000	108.730578 
3043.000000	108.350610 
3042.000000	107.926464 
3041.000000	107.460880 
3040.000000	106.942462 
3039.000000	106.377434 
3038.000000	105.749392 
3037.000000	105.055880 
3036.000000	104.275822 
3035.000000	103.411865 
3034.000000	102.446889 
3033.000000	101.367950 
3032.000000	100.141048 
3031.000000	98.757815  
3030.000000	97.212576  
3029.000000	95.498347  
3028.000000	93.578577  
3027.000000	91.415214  
3026.000000	88.974285  
3025.000000	86.241769  
3024.000000	83.206748  
3023.000000	79.878759  
3022.000000	76.267623  
3021.000000	72.417569  
3020.000000	68.391942  
3019.000000	64.320325  
3018.000000	60.332918  
3017.000000	56.588697  
3016.000000	53.221583  
3015.000000	50.394630  
3014.000000	48.216128  
3013.000000	46.775054  
3012.000000	46.100473  
3011.000000	46.224546  
3010.000000	47.116160  
3009.000000	48.711395  
3008.000000	50.892806  
3007.000000	53.557062  
3006.000000	56.580519  
3005.000000	59.836196  
3004.000000	63.164377  
3003.000000	66.418290  
3002.000000	69.472956  
3001.000000	72.253680  
3000.000000	74.715423  
2999.000000	76.843857  
2998.000000	78.641629  
2997.000000	80.136346  
2996.000000	81.358003  
2995.000000	82.348966  
2994.000000	83.136010  
2993.000000	83.758306  
2992.000000	84.221577  
2991.000000	84.552192  
2990.000000	84.739899  
2989.000000	84.803628  
2988.000000	84.714150  
2987.000000	84.479141  
2986.000000	84.067821  
2985.000000	83.481884  
2984.000000	82.682752  
2983.000000	81.667804  
2982.000000	80.419945  
2981.000000	78.945064  
2980.000000	77.231478  
2979.000000	75.295758  
2978.000000	73.163366  
2977.000000	70.871067  
2976.000000	68.451309  
2975.000000	65.954375  
2974.000000	63.441491  
2973.000000	60.965228  
2972.000000	58.558511  
2971.000000	56.248450  
2970.000000	54.059743  
2969.000000	52.011609  
2968.000000	50.128984  
2967.000000	48.459982  
2966.000000	47.057700  
2965.000000	45.962309  
2964.000000	45.189762  
2963.000000	44.751405  
2962.000000	44.620633  
2961.000000	44.731712  
2960.000000	44.969511  
2959.000000	45.222377  
2958.000000	45.377779  
2957.000000	45.353841  
2956.000000	45.094037  
2955.000000	44.601559  
2954.000000	43.928861  
2953.000000	43.169856  
2952.000000	42.422342  
2951.000000	41.756582  
2950.000000	41.193103  
2949.000000	40.700602  
2948.000000	40.212154  
2947.000000	39.646983  
2946.000000	38.935804  
2945.000000	38.031172  
2944.000000	36.912250  
2943.000000	35.583353  
2942.000000	34.076189  
2941.000000	32.428073  
2940.000000	30.678248  
2939.000000	28.870773  
2938.000000	27.082800  
2937.000000	25.388979  
2936.000000	23.855590  
2935.000000	22.528433  
2934.000000	21.465873  
2933.000000	20.685172  
2932.000000	20.171332  
2931.000000	19.885492  
2930.000000	19.824934  
2929.000000	19.966173  
2928.000000	20.278549  
2927.000000	20.726990  
2926.000000	21.325540  
2925.000000	22.071743  
2924.000000	22.954797  
2923.000000	23.959684  
2922.000000	25.099849  
2921.000000	26.367878  
2920.000000	27.739644  
2919.000000	29.194641  
2918.000000	30.727076  
2917.000000	32.315468  
2916.000000	33.924341  
2915.000000	35.533356  
2914.000000	37.136530  
2913.000000	38.723278  
2912.000000	40.275549  
2911.000000	41.791749  
2910.000000	43.279290  
2909.000000	44.740033  
2908.000000	46.169018  
2907.000000	47.567629  
2906.000000	48.942494  
2905.000000	50.294089  
2904.000000	51.623415  
2903.000000	52.929782  
2902.000000	54.216313  
2901.000000	55.476832  
2900.000000	56.710624  
2899.000000	57.915973  
2898.000000	59.099578  
2897.000000	60.260009  
2896.000000	61.395335  
2895.000000	62.497878  
2894.000000	63.567185  
2893.000000	64.602351  
2892.000000	65.598368  
2891.000000	66.543078  
2890.000000	67.424058  
2889.000000	68.230795  
2888.000000	68.947267  
2887.000000	69.558954  
2886.000000	70.049738  
2885.000000	70.406174  
2884.000000	70.598959  
2883.000000	70.607256  
2882.000000	70.411491  
2881.000000	70.011281  
2880.000000	69.396591  
2879.000000	68.600821  
2878.000000	67.682003  
2877.000000	66.748261  
2876.000000	65.884137  
2875.000000	65.180635  
2874.000000	64.670991  
2873.000000	64.347672  
2872.000000	64.121961  
2871.000000	63.895654  
2870.000000	63.565230  
2869.000000	63.044786  
2868.000000	62.254738  
2867.000000	61.152720  
2866.000000	59.731984  
2865.000000	58.010411  
2864.000000	56.016731  
2863.000000	53.806924  
2862.000000	51.455998  
2861.000000	49.060511  
2860.000000	46.727657  
2859.000000	44.600582  
2858.000000	42.827582  
2857.000000	41.557574  
2856.000000	40.904712  
2855.000000	40.964579  
2854.000000	41.768932  
2853.000000	43.295717  
2852.000000	45.445728  
2851.000000	48.103976  
2850.000000	51.121282  
2849.000000	54.368591  
2848.000000	57.699608  
2847.000000	61.007785  
2846.000000	64.187359  
2845.000000	67.188262  
2844.000000	69.979786  
2843.000000	72.581529  
2842.000000	75.014209  
2841.000000	77.308249  
2840.000000	79.474472  
2839.000000	81.518959  
2838.000000	83.434081  
2837.000000	85.215926  
2836.000000	86.861586  
2835.000000	88.383269  
2834.000000	89.795923  
2833.000000	91.121578  
2832.000000	92.368102  
2831.000000	93.548393  
2830.000000	94.664716  
2829.000000	95.728063  
2828.000000	96.730661  
2827.000000	97.675013  
2826.000000	98.556375  
2825.000000	99.386453  
2824.000000	100.163626 
2823.000000	100.897288 
2822.000000	101.587724 
2821.000000	102.245616 
2820.000000	102.870440 
2819.000000	103.469872 
2818.000000	104.044914 
2817.000000	104.599070 
2816.000000	105.127549 
2815.000000	105.632376 
2814.000000	106.116127 
2813.000000	106.581640 
2812.000000	107.026124 
2811.000000	107.449889 
2810.000000	107.853198 
2809.000000	108.232069 
2808.000000	108.581733 
2807.000000	108.905100 
2806.000000	109.209752 
2805.000000	109.495496 
2804.000000	109.759116 
2803.000000	110.001850 
2802.000000	110.231399 
2801.000000	110.448098 
2800.000000	110.650396 
2799.000000	110.835957 
2798.000000	111.004233 
2797.000000	111.149406 
2796.000000	111.274480 
2795.000000	111.391162 
2794.000000	111.512064 
2793.000000	111.636829 
2792.000000	111.763262 
2791.000000	111.890649 
2790.000000	112.016201 
2789.000000	112.130594 
2788.000000	112.231802 
2787.000000	112.327480 
2786.000000	112.425065 
2785.000000	112.523984 
2784.000000	112.623500 
2783.000000	112.723040 
2782.000000	112.817120 
2781.000000	112.899327 
2780.000000	112.972974 
2779.000000	113.046979 
2778.000000	113.122582 
2777.000000	113.193988 
2776.000000	113.258528 
2775.000000	113.316488 
2774.000000	113.363838 
2773.000000	113.397693 
2772.000000	113.423514 
2771.000000	113.451409 
2770.000000	113.485598 
2769.000000	113.525938 
2768.000000	113.571929 
2767.000000	113.623833 
2766.000000	113.678669 
2765.000000	113.733172 
2764.000000	113.785958 
2763.000000	113.837003 
2762.000000	113.885402 
2761.000000	113.929462 
2760.000000	113.968014 
2759.000000	114.001941 
2758.000000	114.032483 
2757.000000	114.059042 
2756.000000	114.079928 
2755.000000	114.095473 
2754.000000	114.109134 
2753.000000	114.123988 
2752.000000	114.142274 
2751.000000	114.165115 
2750.000000	114.189791 
2749.000000	114.208245 
2748.000000	114.214634 
2747.000000	114.211463 
2746.000000	114.205670 
2745.000000	114.199709 
2744.000000	114.194798 
2743.000000	114.194369 
2742.000000	114.199995 
2741.000000	114.207458 
2740.000000	114.214754 
2739.000000	114.224600 
2738.000000	114.234399 
2737.000000	114.233231 
2736.000000	114.216518 
2735.000000	114.192318 
2734.000000	114.167451 
2733.000000	114.138531 
2732.000000	114.102220 
2731.000000	114.062690 
2730.000000	114.025092 
2729.000000	113.992047 
2728.000000	113.967013 
2727.000000	113.950800 
2726.000000	113.935208 
2725.000000	113.912677 
2724.000000	113.889622 
2723.000000	113.878774 
2722.000000	113.881349 
2721.000000	113.888478 
2720.000000	113.897371 
2719.000000	113.912558 
2718.000000	113.935804 
2717.000000	113.963603 
2716.000000	113.992571 
2715.000000	114.020156 
2714.000000	114.044237 
2713.000000	114.064860 
2712.000000	114.085340 
2711.000000	114.106369 
2710.000000	114.123797 
2709.000000	114.133524 
2708.000000	114.137458 
2707.000000	114.142155 
2706.000000	114.152026 
2705.000000	114.165210 
2704.000000	114.177370 
2703.000000	114.188718 
2702.000000	114.203381 
2701.000000	114.222311 
2700.000000	114.241909 
2699.000000	114.259791 
2698.000000	114.274883 
2697.000000	114.284086 
2696.000000	114.285182 
2695.000000	114.283227 
2694.000000	114.284443 
2693.000000	114.287829 
2692.000000	114.289665 
2691.000000	114.291906 
2690.000000	114.297032 
2689.000000	114.301681 
2688.000000	114.303851 
2687.000000	114.308834 
2686.000000	114.319682 
2685.000000	114.331221 
2684.000000	114.342784 
2683.000000	114.363121 
2682.000000	114.395308 
2681.000000	114.429688 
2680.000000	114.459371 
2679.000000	114.488077 
2678.000000	114.517617 
2677.000000	114.543175 
2676.000000	114.565014 
2675.000000	114.590525 
2674.000000	114.620590 
2673.000000	114.647746 
2672.000000	114.668941 
2671.000000	114.688420 
2670.000000	114.708375 
2669.000000	114.727139 
2668.000000	114.745664 
2667.000000	114.766645 
2666.000000	114.788007 
2665.000000	114.805674 
2664.000000	114.819359 
2663.000000	114.831733 
2662.000000	114.842867 
2661.000000	114.851856 
2660.000000	114.859867 
2659.000000	114.869117 
2658.000000	114.879870 
2657.000000	114.890074 
2656.000000	114.897823 
2655.000000	114.903426 
2654.000000	114.908790 
2653.000000	114.915585 
2652.000000	114.924263 
2651.000000	114.934515 
2650.000000	114.944815 
2649.000000	114.951348 
2648.000000	114.951825 
2647.000000	114.949917 
2646.000000	114.951682 
2645.000000	114.957880 
2644.000000	114.965152 
2643.000000	114.973783 
2642.000000	114.986395 
2641.000000	115.001440 
2640.000000	115.015435 
2639.000000	115.029597 
2638.000000	115.046310 
2637.000000	115.063071 
2636.000000	115.077948 
2635.000000	115.094995 
2634.000000	115.115594 
2633.000000	115.133404 
2632.000000	115.145802 
2631.000000	115.161132 
2630.000000	115.184164 
2629.000000	115.207982 
2628.000000	115.227174 
2627.000000	115.246343 
2626.000000	115.267848 
2625.000000	115.284943 
2624.000000	115.294456 
2623.000000	115.302753 
2622.000000	115.313744 
2621.000000	115.324068 
2620.000000	115.332722 
2619.000000	115.342950 
2618.000000	115.353631 
2617.000000	115.359473 
2616.000000	115.360498 
2615.000000	115.360903 
2614.000000	115.360450 
2613.000000	115.357375 
2612.000000	115.354919 
2611.000000	115.356540 
2610.000000	115.358662 
2609.000000	115.356445 
2608.000000	115.353012 
2607.000000	115.355134 
2606.000000	115.364694 
2605.000000	115.378260 
2604.000000	115.393376 
2603.000000	115.409731 
2602.000000	115.426611 
2601.000000	115.441346 
2600.000000	115.451788 
2599.000000	115.459179 
2598.000000	115.467333 
2597.000000	115.477919 
2596.000000	115.490651 
2595.000000	115.507245 
2594.000000	115.529108 
2593.000000	115.551662 
2592.000000	115.567684 
2591.000000	115.577530 
2590.000000	115.587878 
2589.000000	115.601372 
2588.000000	115.616226 
2587.000000	115.633296 
2586.000000	115.654015 
2585.000000	115.674138 
2584.000000	115.690088 
2583.000000	115.706586 
2582.000000	115.727424 
2581.000000	115.746426 
2580.000000	115.757870 
2579.000000	115.767693 
2578.000000	115.783286 
2577.000000	115.801405 
2576.000000	115.815782 
2575.000000	115.826797 
2574.000000	115.836071 
2573.000000	115.841531 
2572.000000	115.844893 
2571.000000	115.853023 
2570.000000	115.866279 
2569.000000	115.876984 
2568.000000	115.882420 
2567.000000	115.887689 
2566.000000	115.894293 
2565.000000	115.898609 
2564.000000	115.901851 
2563.000000	115.908885 
2562.000000	115.917634 
2561.000000	115.921926 
2560.000000	115.922975 
2559.000000	115.926337 
2558.000000	115.930342 
2557.000000	115.929317 
2556.000000	115.924191 
2555.000000	115.920376 
2554.000000	115.918493 
2553.000000	115.915870 
2552.000000	115.912771 
2551.000000	115.912318 
2550.000000	115.915369 
2549.000000	115.919113 
2548.000000	115.921378 
2547.000000	115.923595 
2546.000000	115.929245 
2545.000000	115.938925 
2544.000000	115.949630 
2543.000000	115.959191 
2542.000000	115.967988 
2541.000000	115.975689 
2540.000000	115.980219 
2539.000000	115.982508 
2538.000000	115.985584 
2537.000000	115.990233 
2536.000000	115.995383 
2535.000000	116.002225 
2534.000000	116.012191 
2533.000000	116.021919 
2532.000000	116.028237 
2531.000000	116.034722 
2530.000000	116.044092 
2529.000000	116.050982 
2528.000000	116.050744 
2527.000000	116.049647 
2526.000000	116.055059 
2525.000000	116.064214 
2524.000000	116.072654 
2523.000000	116.083264 
2522.000000	116.097378 
2521.000000	116.108012 
2520.000000	116.111087 
2519.000000	116.112899 
2518.000000	116.118168 
2517.000000	116.123390 
2516.000000	116.127204 
2515.000000	116.134858 
2514.000000	116.146969 
2513.000000	116.157221 
2512.000000	116.163825 
2511.000000	116.171789 
2510.000000	116.182303 
2509.000000	116.191220 
2508.000000	116.197872 
2507.000000	116.205739 
2506.000000	116.214680 
2505.000000	116.221117 
2504.000000	116.225552 
2503.000000	116.230869 
2502.000000	116.237044 
2501.000000	116.241908 
2500.000000	116.246366 
2499.000000	116.253185 
2498.000000	116.262865 
2497.000000	116.273379 
2496.000000	116.283178 
2495.000000	116.292428 
2494.000000	116.302061 
2493.000000	116.311764 
2492.000000	116.320443 
2491.000000	116.328573 
2490.000000	116.338038 
2489.000000	116.348671 
2488.000000	116.358423 
2487.000000	116.367673 
2486.000000	116.378307 
2485.000000	116.388535 
2484.000000	116.395330 
2483.000000	116.400909 
2482.000000	116.409802 
2481.000000	116.419935 
2480.000000	116.426205 
2479.000000	116.430640 
2478.000000	116.438770 
2477.000000	116.448569 
2476.000000	116.455745 
2475.000000	116.463255 
2474.000000	116.473984 
2473.000000	116.481137 
2472.000000	116.479730 
2471.000000	116.476917 
2470.000000	116.479015 
2469.000000	116.480183 
2468.000000	116.475152 
2467.000000	116.470408 
2466.000000	116.471004 
2465.000000	116.470718 
2464.000000	116.465854 
2463.000000	116.462874 
2462.000000	116.465139 
2461.000000	116.465926 
2460.000000	116.461634 
2459.000000	116.457366 
2458.000000	116.455817 
2457.000000	116.453909 
2456.000000	116.452383 
2455.000000	116.455602 
2454.000000	116.461753 
2453.000000	116.464519 
2452.000000	116.463685 
2451.000000	116.464066 
2450.000000	116.466307 
2449.000000	116.467356 
2448.000000	116.467332 
2447.000000	116.467881 
2446.000000	116.466975 
2445.000000	116.461873 
2444.000000	116.454768 
2443.000000	116.450357 
2442.000000	116.450238 
2441.000000	116.451978 
2440.000000	116.452908 
2439.000000	116.452217 
2438.000000	116.451191 
2437.000000	116.450905 
2436.000000	116.452383 
2435.000000	116.458463 
2434.000000	116.470599 
2433.000000	116.484332 
2432.000000	116.493248 
2431.000000	116.498231 
2430.000000	116.504693 
2429.000000	116.512012 
2428.000000	116.515588 
2427.000000	116.518282 
2426.000000	116.526126 
2425.000000	116.535639 
2424.000000	116.538858 
2423.000000	116.537499 
2422.000000	116.538262 
2421.000000	116.539168 
2420.000000	116.536188 
2419.000000	116.534376 
2418.000000	116.538906 
2417.000000	116.543054 
2416.000000	116.539931 
2415.000000	116.534256 
2414.000000	116.531562 
2413.000000	116.527175 
2412.000000	116.517591 
2411.000000	116.508483 
2410.000000	116.502976 
2409.000000	116.495037 
2408.000000	116.482925 
2407.000000	116.473340 
2406.000000	116.468214 
2405.000000	116.459894 
2404.000000	116.444826 
2403.000000	116.427159 
2402.000000	116.408443 
2401.000000	116.386103 
2400.000000	116.363072 
2399.000000	116.345787 
2398.000000	116.333484 
2397.000000	116.319632 
2396.000000	116.303157 
2395.000000	116.288304 
2394.000000	116.277194 
2393.000000	116.268134 
2392.000000	116.260457 
2391.000000	116.254544 
2390.000000	116.250157 
2389.000000	116.246867 
2388.000000	116.246891 
2387.000000	116.254329 
2386.000000	116.271829 
2385.000000	116.295671 
2384.000000	116.319394 
2383.000000	116.342401 
2382.000000	116.369795 
2381.000000	116.401267 
2380.000000	116.431498 
2379.000000	116.463208 
2378.000000	116.501975 
2377.000000	116.538166 
2376.000000	116.557645 
2375.000000	116.569852 
2374.000000	116.594338 
2373.000000	116.623449 
2372.000000	116.635894 
2371.000000	116.637563 
2370.000000	116.642832 
2369.000000	116.633892 
2368.000000	116.593384 
2367.000000	116.551828 
2366.000000	116.539239 
2365.000000	116.526770 
2364.000000	116.481637 
2363.000000	116.432166 
2362.000000	116.413307 
2361.000000	116.406250 
2360.000000	116.396069 
2359.000000	116.415452 
2358.000000	116.470980 
2357.000000	116.506409 
2356.000000	116.496419 
2355.000000	116.491198 
2354.000000	116.522097 
2353.000000	116.550326 
2352.000000	116.547989 
2351.000000	116.544413 
2350.000000	116.561794 
2349.000000	116.579937 
2348.000000	116.583704 
2347.000000	116.583514 
2346.000000	116.579699 
2345.000000	116.559410 
2344.000000	116.529583 
2343.000000	116.508126 
2342.000000	116.490149 
2341.000000	116.461014 
2340.000000	116.430187 
2339.000000	116.419506 
2338.000000	116.428160 
2337.000000	116.434979 
2336.000000	116.428112 
2335.000000	116.414499 
2334.000000	116.404366 
2333.000000	116.397643 
2332.000000	116.387557 
2331.000000	116.373443 
2330.000000	116.363358 
2329.000000	116.361427 
2328.000000	116.361474 
2327.000000	116.358733 
2326.000000	116.355395 
2325.000000	116.350030 
2324.000000	116.338872 
2323.000000	116.329360 
2322.000000	116.331386 
2321.000000	116.334271 
2320.000000	116.318845 
2319.000000	116.290783 
2318.000000	116.272473 
2317.000000	116.266298 
2316.000000	116.256284 
2315.000000	116.240596 
2314.000000	116.230106 
2313.000000	116.223502 
2312.000000	116.212391 
2311.000000	116.201138 
2310.000000	116.195178 
2309.000000	116.184425 
2308.000000	116.162991 
2307.000000	116.144919 
2306.000000	116.140222 
2305.000000	116.136932 
2304.000000	116.126275 
2303.000000	116.119885 
2302.000000	116.124153 
2301.000000	116.125106 
2300.000000	116.114330 
2299.000000	116.103672 
2298.000000	116.101956 
2297.000000	116.100859 
2296.000000	116.093945 
2295.000000	116.086673 
2294.000000	116.081738 
2293.000000	116.073751 
2292.000000	116.061830 
2291.000000	116.051840 
2290.000000	116.045284 
2289.000000	116.038203 
2288.000000	116.029906 
2287.000000	116.022539 
2286.000000	116.014361 
2285.000000	116.003131 
2284.000000	115.991878 
2283.000000	115.985965 
2282.000000	115.986371 
2281.000000	115.990400 
2280.000000	115.996479 
2279.000000	116.004204 
2278.000000	116.011786 
2277.000000	116.015768 
2276.000000	116.014480 
2275.000000	116.010713 
2274.000000	116.008996 
2273.000000	116.009306 
2272.000000	116.007971 
2271.000000	116.004538 
2270.000000	116.001749 
2269.000000	115.998029 
2268.000000	115.988516 
2267.000000	115.975403 
2266.000000	115.964841 
2265.000000	115.955495 
2264.000000	115.941715 
2263.000000	115.926599 
2262.000000	115.916848 
2261.000000	115.908384 
2260.000000	115.894889 
2259.000000	115.882682 
2258.000000	115.878200 
2257.000000	115.872716 
2256.000000	115.857458 
2255.000000	115.841317 
2254.000000	115.832996 
2253.000000	115.822935 
2252.000000	115.801978 
2251.000000	115.780091 
2250.000000	115.767002 
2249.000000	115.755081 
2248.000000	115.737295 
2247.000000	115.721607 
2246.000000	115.713715 
2245.000000	115.705657 
2244.000000	115.692496 
2243.000000	115.680789 
2242.000000	115.673518 
2241.000000	115.665125 
2240.000000	115.655493 
2239.000000	115.651154 
2238.000000	115.651226 
2237.000000	115.647959 
2236.000000	115.640497 
2235.000000	115.634679 
2234.000000	115.631055 
2233.000000	115.625786 
2232.000000	115.620470 
2231.000000	115.619325 
2230.000000	115.620470 
2229.000000	115.618085 
2228.000000	115.611147 
2227.000000	115.603423 
2226.000000	115.596938 
2225.000000	115.590167 
2224.000000	115.582013 
2223.000000	115.575265 
2222.000000	115.573215 
2221.000000	115.572786 
2220.000000	115.566349 
2219.000000	115.552639 
2218.000000	115.538692 
2217.000000	115.528464 
2216.000000	115.518593 
2215.000000	115.507769 
2214.000000	115.499353 
2213.000000	115.492224 
2212.000000	115.481209 
2211.000000	115.467405 
2210.000000	115.455412 
2209.000000	115.442252 
2208.000000	115.422630 
2207.000000	115.402603 
2206.000000	115.390253 
2205.000000	115.380287 
2204.000000	115.364098 
2203.000000	115.346980 
2202.000000	115.336680 
2201.000000	115.327286 
2200.000000	115.312170 
2199.000000	115.299034 
2198.000000	115.294122 
2197.000000	115.287423 
2196.000000	115.270805 
2195.000000	115.252828 
2194.000000	115.240764 
2193.000000	115.227985 
2192.000000	115.210819 
2191.000000	115.197277 
2190.000000	115.189146 
2189.000000	115.176296 
2188.000000	115.156602 
2187.000000	115.139460 
2186.000000	115.126848 
2185.000000	115.110707 
2184.000000	115.091276 
2183.000000	115.076971 
2182.000000	115.066337 
2181.000000	115.049290 
2180.000000	115.024590 
2179.000000	115.001296 
2178.000000	114.982962 
2177.000000	114.964628 
2176.000000	114.942955 
2175.000000	114.920234 
2174.000000	114.899539 
2173.000000	114.881014 
2172.000000	114.863491 
2171.000000	114.846825 
2170.000000	114.831876 
2169.000000	114.816999 
2168.000000	114.799165 
2167.000000	114.780449 
2166.000000	114.767456 
2165.000000	114.760351 
2164.000000	114.752531 
2163.000000	114.743471 
2162.000000	114.739727 
2161.000000	114.740252 
2160.000000	114.736533 
2159.000000	114.729380 
2158.000000	114.727544 
2157.000000	114.729619 
2156.000000	114.726924 
2155.000000	114.722561 
2154.000000	114.725899 
2153.000000	114.731478 
2152.000000	114.727807 
2151.000000	114.719247 
2150.000000	114.716482 
2149.000000	114.714694 
2148.000000	114.704918 
2147.000000	114.694023 
2146.000000	114.690470 
2145.000000	114.686274 
2144.000000	114.675116 
2143.000000	114.667344 
2142.000000	114.668822 
2141.000000	114.665842 
2140.000000	114.650940 
2139.000000	114.637422 
2138.000000	114.633703 
2137.000000	114.628863 
2136.000000	114.616680 
2135.000000	114.607191 
2134.000000	114.603710 
2133.000000	114.595794 
2132.000000	114.580392 
2131.000000	114.567685 
2130.000000	114.560961 
2129.000000	114.551806 
2128.000000	114.536690 
2127.000000	114.522027 
2126.000000	114.510989 
2125.000000	114.499521 
2124.000000	114.484977 
2123.000000	114.469718 
2122.000000	114.456009 
2121.000000	114.441776 
2120.000000	114.423298 
2119.000000	114.401507 
2118.000000	114.381861 
2117.000000	114.367365 
2116.000000	114.354228 
2115.000000	114.340853 
2114.000000	114.330577 
2113.000000	114.321374 
2112.000000	114.303588 
2111.000000	114.276409 
2110.000000	114.251208 
2109.000000	114.232921 
2108.000000	114.214706 
2107.000000	114.195346 
2106.000000	114.181566 
2105.000000	114.169788 
2104.000000	114.148712 
2103.000000	114.121317 
2102.000000	114.100575 
2101.000000	114.083647 
2100.000000	114.057135 
2099.000000	114.023637 
2098.000000	113.996148 
2097.000000	113.972949 
2096.000000	113.944244 
2095.000000	113.914036 
2094.000000	113.890218 
2093.000000	113.865160 
2092.000000	113.831353 
2091.000000	113.799428 
2090.000000	113.778042 
2089.000000	113.755416 
2088.000000	113.721561 
2087.000000	113.686943 
2086.000000	113.660621 
2085.000000	113.633918 
2084.000000	113.600730 
2083.000000	113.570332 
2082.000000	113.546347 
2081.000000	113.517951 
2080.000000	113.482284 
2079.000000	113.451266 
2078.000000	113.430094 
2077.000000	113.410234 
2076.000000	113.388037 
2075.000000	113.369917 
2074.000000	113.357281 
2073.000000	113.344001 
2072.000000	113.328576 
2071.000000	113.315629 
2070.000000	113.305926 
2069.000000	113.294219 
2068.000000	113.277006 
2067.000000	113.256144 
2066.000000	113.235235 
2065.000000	113.215136 
2064.000000	113.194251 
2063.000000	113.173913 
2062.000000	113.157963 
2061.000000	113.144230 
2060.000000	113.124489 
2059.000000	113.099265 
2058.000000	113.079166 
2057.000000	113.065123 
2056.000000	113.044548 
2055.000000	113.014578 
2054.000000	112.987041 
2053.000000	112.964248 
2052.000000	112.935686 
2051.000000	112.903141 
2050.000000	112.880778 
2049.000000	112.867188 
2048.000000	112.846708 
2047.000000	112.819147 
2046.000000	112.797379 
2045.000000	112.779688 
2044.000000	112.755513 
2043.000000	112.731575 
2042.000000	112.721538 
2041.000000	112.719202 
2040.000000	112.711668 
2039.000000	112.705588 
2038.000000	112.711334 
2037.000000	112.721347 
2036.000000	112.727236 
2035.000000	112.739586 
2034.000000	112.765550 
2033.000000	112.791728 
2032.000000	112.807989 
2031.000000	112.825441 
2030.000000	112.851977 
2029.000000	112.876629 
2028.000000	112.891650 
2027.000000	112.906289 
2026.000000	112.926793 
2025.000000	112.946319 
2024.000000	112.961435 
2023.000000	112.978243 
2022.000000	112.997579 
2021.000000	113.012361 
2020.000000	113.021588 
2019.000000	113.032078 
2018.000000	113.046479 
2017.000000	113.060569 
2016.000000	113.072514 
2015.000000	113.085937 
2014.000000	113.103222 
2013.000000	113.121294 
2012.000000	113.134479 
2011.000000	113.141560 
2010.000000	113.146615 
2009.000000	113.152146 
2008.000000	113.155841 
2007.000000	113.158583 
2006.000000	113.166522 
2005.000000	113.179373 
2004.000000	113.188195 
2003.000000	113.192486 
2002.000000	113.202309 
2001.000000	113.217544 
2000.000000	113.225078 
1999.000000	113.223886 
1998.000000	113.227415 
1997.000000	113.236880 
1996.000000	113.240003 
1995.000000	113.238596 
1994.000000	113.245296 
1993.000000	113.253593 
1992.000000	113.247418 
1991.000000	113.235092 
1990.000000	113.236427 
1989.000000	113.245558 
1988.000000	113.245534 
1987.000000	113.244295 
1986.000000	113.257002 
1985.000000	113.271355 
1984.000000	113.269829 
1983.000000	113.263797 
1982.000000	113.270163 
1981.000000	113.279247 
1980.000000	113.277769 
1979.000000	113.275575 
1978.000000	113.282752 
1977.000000	113.288068 
1976.000000	113.284635 
1975.000000	113.285017 
1974.000000	113.294458 
1973.000000	113.299465 
1972.000000	113.295221 
1971.000000	113.294744 
1970.000000	113.302469 
1969.000000	113.304877 
1968.000000	113.294863 
1967.000000	113.282155 
1966.000000	113.276958 
1965.000000	113.278269 
1964.000000	113.281989 
1963.000000	113.287687 
1962.000000	113.295936 
1961.000000	113.303875 
1960.000000	113.307404 
1959.000000	113.306975 
1958.000000	113.308358 
1957.000000	113.312602 
1956.000000	113.312292 
1955.000000	113.305473 
1954.000000	113.302278 
1953.000000	113.306307 
1952.000000	113.306522 
1951.000000	113.299345 
1950.000000	113.298034 
1949.000000	113.305950 
1948.000000	113.307857 
1947.000000	113.300657 
1946.000000	113.301014 
1945.000000	113.310742 
1944.000000	113.310575 
1943.000000	113.298392 
1942.000000	113.295340 
1941.000000	113.307237 
1940.000000	113.319253 
1939.000000	113.329410 
1938.000000	113.348126 
1937.000000	113.367462 
1936.000000	113.372087 
1935.000000	113.373088 
1934.000000	113.388776 
1933.000000	113.407158 
1932.000000	113.410592 
1931.000000	113.413357 
1930.000000	113.433694 
1929.000000	113.455581 
1928.000000	113.460516 
1927.000000	113.464236 
1926.000000	113.483905 
1925.000000	113.502264 
1924.000000	113.499355 
1923.000000	113.487744 
1922.000000	113.486790 
1921.000000	113.492512 
1920.000000	113.495564 
1919.000000	113.498592 
1918.000000	113.501358 
1917.000000	113.495612 
1916.000000	113.484978 
1915.000000	113.484144 
1914.000000	113.494682 
1913.000000	113.502883 
1912.000000	113.502001 
1911.000000	113.497853 
1910.000000	113.492608 
1909.000000	113.481640 
1908.000000	113.465285 
1907.000000	113.451218 
1906.000000	113.443636 
1905.000000	113.437938 
1904.000000	113.426947 
1903.000000	113.411951 
1902.000000	113.400888 
1901.000000	113.393545 
1900.000000	113.379240 
1899.000000	113.357234 
1898.000000	113.341403 
1897.000000	113.333249 
1896.000000	113.314414 
1895.000000	113.282585 
1894.000000	113.262033 
1893.000000	113.261127 
1892.000000	113.255906 
1891.000000	113.232707 
1890.000000	113.205885 
1889.000000	113.181018 
1888.000000	113.148522 
1887.000000	113.118648 
1886.000000	113.112664 
1885.000000	113.117432 
1884.000000	113.102340 
1883.000000	113.075447 
1882.000000	113.066244 
1881.000000	113.067245 
1880.000000	113.052487 
1879.000000	113.034844 
1878.000000	113.040947 
1877.000000	113.056278 
1876.000000	113.054275 
1875.000000	113.049292 
1874.000000	113.063287 
1873.000000	113.079714 
1872.000000	113.080000 
1871.000000	113.082337 
1870.000000	113.097977 
1869.000000	113.102126 
1868.000000	113.086605 
1867.000000	113.086366 
1866.000000	113.120341 
1865.000000	113.160514 
1864.000000	113.185214 
1863.000000	113.209819 
1862.000000	113.244962 
1861.000000	113.275146 
1860.000000	113.292670 
1859.000000	113.312387 
1858.000000	113.341951 
1857.000000	113.369822 
1856.000000	113.387012 
1855.000000	113.399291 
1854.000000	113.415193 
1853.000000	113.434910 
1852.000000	113.453054 
1851.000000	113.468337 
1850.000000	113.485288 
1849.000000	113.503336 
1848.000000	113.511013 
1847.000000	113.504028 
1846.000000	113.493132 
1845.000000	113.479471 
1844.000000	113.447690 
1843.000000	113.407111 
1842.000000	113.394904 
1841.000000	113.415002 
1840.000000	113.423228 
1839.000000	113.403367 
1838.000000	113.388323 
1837.000000	113.385701 
1836.000000	113.361763 
1835.000000	113.322353 
1834.000000	113.314700 
1833.000000	113.333654 
1832.000000	113.322305 
1831.000000	113.274359 
1830.000000	113.236689 
1829.000000	113.213706 
1828.000000	113.173556 
1827.000000	113.131165 
1826.000000	113.119077 
1825.000000	113.105130 
1824.000000	113.047552 
1823.000000	112.983465 
1822.000000	112.961626 
1821.000000	112.944960 
1820.000000	112.884306 
1819.000000	112.810564 
1818.000000	112.763833 
1817.000000	112.710499 
1816.000000	112.621760 
1815.000000	112.539482 
1814.000000	112.492346 
1813.000000	112.432694 
1812.000000	112.325406 
1811.000000	112.206435 
1810.000000	112.108230 
1809.000000	112.008523 
1808.000000	111.890530 
1807.000000	111.776423 
1806.000000	111.677694 
1805.000000	111.574411 
1804.000000	111.455798 
1803.000000	111.329627 
1802.000000	111.190462 
1801.000000	111.023044 
1800.000000	110.832548 
1799.000000	110.647439 
1798.000000	110.485744 
1797.000000	110.338068 
1796.000000	110.179185 
1795.000000	110.000586 
1794.000000	109.805011 
1793.000000	109.574770 
1792.000000	109.276080 
1791.000000	108.940887 
1790.000000	108.662152 
1789.000000	108.469247 
1788.000000	108.269715 
1787.000000	107.994651 
1786.000000	107.680153 
1785.000000	107.366633 
1784.000000	107.018995 
1783.000000	106.635665 
1782.000000	106.264472 
1781.000000	105.870079 
1780.000000	105.362796 
1779.000000	104.802560 
1778.000000	104.327344 
1777.000000	103.885269 
1776.000000	103.337645 
1775.000000	102.733278 
1774.000000	102.138352 
1773.000000	101.329994 
1772.000000	100.152134 
1771.000000	98.898196  
1770.000000	97.931790  
1769.000000	97.040414  
1768.000000	95.818829  
1767.000000	94.323801  
1766.000000	92.975807  
1765.000000	91.776347  
1764.000000	90.347337  
1763.000000	88.350701  
1762.000000	85.818767  
1761.000000	83.008170  
1760.000000	80.278682  
1759.000000	77.628397  
1758.000000	74.408173  
1757.000000	69.983220  
1756.000000	64.795184  
1755.000000	59.948801  
1754.000000	55.630898  
1753.000000	50.790023  
1752.000000	44.576621  
1751.000000	37.322425  
1750.000000	29.959416  
1749.000000	23.271536  
1748.000000	17.904639  
1747.000000	14.135289  
1746.000000	11.564540  
1745.000000	9.641861   
1744.000000	8.434391   
1743.000000	8.061075   
1742.000000	8.212256   
1741.000000	8.840012   
1740.000000	10.642671  
1739.000000	13.571453  
1738.000000	16.387248  
1737.000000	18.563461  
1736.000000	21.786022  
1735.000000	27.909851  
1734.000000	36.449766  
1733.000000	44.906735  
1732.000000	51.482176  
1731.000000	56.409788  
1730.000000	61.019277  
1729.000000	65.889477  
1728.000000	70.441484  
1727.000000	74.050116  
1726.000000	76.965022  
1725.000000	79.790592  
1724.000000	82.652187  
1723.000000	85.205912  
1722.000000	87.186408  
1721.000000	88.648700  
1720.000000	89.912152  
1719.000000	91.312885  
1718.000000	92.954826  
1717.000000	94.573926  
1716.000000	95.887184  
1715.000000	96.815633  
1714.000000	97.502946  
1713.000000	98.081088  
1712.000000	98.619222  
1711.000000	99.104762  
1710.000000	99.538779  
1709.000000	99.911427  
1708.000000	100.228428 
1707.000000	100.483536 
1706.000000	100.683736 
1705.000000	100.818085 
1704.000000	100.884985 
1703.000000	100.915384 
1702.000000	100.995635 
1701.000000	101.194262 
1700.000000	101.489734 
1699.000000	101.804065 
1698.000000	102.133941 
1697.000000	102.562308 
1696.000000	103.134322 
1695.000000	103.754043 
1694.000000	104.252552 
1693.000000	104.572081 
1692.000000	104.835414 
1691.000000	105.170702 
1690.000000	105.534911 
1689.000000	105.817842 
1688.000000	106.034660 
1687.000000	106.258988 
1686.000000	106.465053 
1685.000000	106.621026 
1684.000000	106.809473 
1683.000000	107.077264 
1682.000000	107.302451 
1681.000000	107.407116 
1680.000000	107.500123 
1679.000000	107.666230 
1678.000000	107.808876 
1677.000000	107.874679 
1676.000000	107.963538 
1675.000000	108.115720 
1674.000000	108.217048 
1673.000000	108.230829 
1672.000000	108.260035 
1671.000000	108.322525 
1670.000000	108.299589 
1669.000000	108.163690 
1668.000000	108.029770 
1667.000000	107.950830 
1666.000000	107.847023 
1665.000000	107.647657 
1664.000000	107.338500 
1663.000000	106.901335 
1662.000000	106.356120 
1661.000000	105.826330 
1660.000000	105.420351 
1659.000000	105.109167 
1658.000000	104.818081 
1657.000000	104.563832 
1656.000000	104.390335 
1655.000000	104.275321 
1654.000000	104.181981 
1653.000000	104.145312 
1652.000000	104.205942 
1651.000000	104.337835 
1650.000000	104.482412 
1649.000000	104.643797 
1648.000000	104.877090 
1647.000000	105.203485 
1646.000000	105.555605 
1645.000000	105.857014 
1644.000000	106.132912 
1643.000000	106.492543 
1642.000000	106.984162 
1641.000000	107.542252 
1640.000000	108.083677 
1639.000000	108.588552 
1638.000000	109.074068 
1637.000000	109.558176 
1636.000000	110.047006 
1635.000000	110.496520 
1634.000000	110.815954 
1633.000000	110.981106 
1632.000000	111.089038 
1631.000000	111.230301 
1630.000000	111.372160 
1629.000000	111.459994 
1628.000000	111.525416 
1627.000000	111.611819 
1626.000000	111.680245 
1625.000000	111.702919 
1624.000000	111.730337 
1623.000000	111.797666 
1622.000000	111.857581 
1621.000000	111.890196 
1620.000000	111.946511 
1619.000000	112.042021 
1618.000000	112.117886 
1617.000000	112.152123 
1616.000000	112.189531 
1615.000000	112.246799 
1614.000000	112.289762 
1613.000000	112.314438 
1612.000000	112.355089 
1611.000000	112.409639 
1610.000000	112.441825 
1609.000000	112.450170 
1608.000000	112.465405 
1607.000000	112.491750 
1606.000000	112.508678 
1605.000000	112.514185 
1604.000000	112.524223 
1603.000000	112.539696 
1602.000000	112.548017 
1601.000000	112.545824 
1600.000000	112.546014 
1599.000000	112.559056 
1598.000000	112.575674 
1597.000000	112.575984 
1596.000000	112.559890 
1595.000000	112.547302 
1594.000000	112.543272 
1593.000000	112.531876 
1592.000000	112.514925 
1591.000000	112.512159 
1590.000000	112.515974 
1589.000000	112.499165 
1588.000000	112.473607 
1587.000000	112.474107 
1586.000000	112.488389 
1585.000000	112.478590 
1584.000000	112.459874 
1583.000000	112.468910 
1582.000000	112.481594 
1581.000000	112.462186 
1580.000000	112.450504 
1579.000000	112.487411 
1578.000000	112.516260 
1577.000000	112.476682 
1576.000000	112.421345 
1575.000000	112.420511 
1574.000000	112.443828 
1573.000000	112.444114 
1572.000000	112.452983 
1571.000000	112.491393 
1570.000000	112.499904 
1569.000000	112.453126 
1568.000000	112.422060 
1567.000000	112.446117 
1566.000000	112.466359 
1565.000000	112.445878 
1564.000000	112.431883 
1563.000000	112.455797 
1562.000000	112.487387 
1561.000000	112.510967 
1560.000000	112.537312 
1559.000000	112.536764 
1558.000000	112.469363 
1557.000000	112.374401 
1556.000000	112.329626 
1555.000000	112.336611 
1554.000000	112.335133 
1553.000000	112.305307 
1552.000000	112.281394 
1551.000000	112.280797 
1550.000000	112.275147 
1549.000000	112.237715 
1548.000000	112.196803 
1547.000000	112.201857 
1546.000000	112.230706 
1545.000000	112.204289 
1544.000000	112.132501 
1543.000000	112.120151 
1542.000000	112.168002 
1541.000000	112.137627 
1540.000000	111.995577 
1539.000000	111.889028 
1538.000000	111.893391 
1537.000000	111.908411 
1536.000000	111.874723 
1535.000000	111.855006 
1534.000000	111.851191 
1533.000000	111.783957 
1532.000000	111.681270 
1531.000000	111.653923 
1530.000000	111.680364 
1529.000000	111.648869 
1528.000000	111.574554 
1527.000000	111.543250 
1526.000000	111.516356 
1525.000000	111.426210 
1524.000000	111.349558 
1523.000000	111.356377 
1522.000000	111.336874 
1521.000000	111.205101 
1520.000000	111.084651 
1519.000000	111.084318 
1518.000000	111.089611 
1517.000000	110.982394 
1516.000000	110.854005 
1515.000000	110.819864 
1514.000000	110.820174 
1513.000000	110.760354 
1512.000000	110.673904 
1511.000000	110.628390 
1510.000000	110.600376 
1509.000000	110.525631 
1508.000000	110.384154 
1507.000000	110.200357 
1506.000000	110.016632 
1505.000000	109.877014 
1504.000000	109.801054 
1503.000000	109.766149 
1502.000000	109.725332 
1501.000000	109.641766 
1500.000000	109.523177 
1499.000000	109.407973 
1498.000000	109.294390 
1497.000000	109.122419 
1496.000000	108.888483 
1495.000000	108.690547 
1494.000000	108.585882 
1493.000000	108.484411 
1492.000000	108.303952 
1491.000000	108.086729 
1490.000000	107.871675 
1489.000000	107.586932 
1488.000000	107.226276 
1487.000000	106.911778 
1486.000000	106.689381 
1485.000000	106.418156 
1484.000000	106.065988 
1483.000000	105.732989 
1482.000000	105.361723 
1481.000000	104.795837 
1480.000000	104.181313 
1479.000000	103.724241 
1478.000000	103.180003 
1477.000000	102.243852 
1476.000000	101.220703 
1475.000000	100.335621 
1474.000000	98.793816  
1473.000000	95.712304  
1472.000000	91.627931  
1471.000000	87.825751  
1470.000000	84.639167  
1469.000000	81.551957  
1468.000000	78.455972  
1467.000000	75.631952  
1466.000000	73.077845  
1465.000000	70.804738  
1464.000000	69.266247  
1463.000000	68.722939  
1462.000000	68.742704  
1461.000000	68.835020  
1460.000000	68.993163  
1459.000000	69.242453  
1458.000000	69.372653  
1457.000000	69.410681  
1456.000000	69.733762  
1455.000000	70.448565  
1454.000000	71.231770  
1453.000000	71.875739  
1452.000000	72.490072  
1451.000000	73.069429  
1450.000000	73.370456  
1449.000000	73.312878  
1448.000000	73.046302  
1447.000000	72.661161  
1446.000000	72.116470  
1445.000000	71.441030  
1444.000000	70.619153  
1443.000000	69.498229  
1442.000000	67.974638  
1441.000000	66.211819  
1440.000000	64.368844  
1439.000000	62.412214  
1438.000000	60.366678  
1437.000000	58.666872  
1436.000000	58.003163  
1435.000000	58.789682  
1434.000000	60.890340  
1433.000000	63.863992  
1432.000000	67.403316  
1431.000000	71.373558  
1430.000000	75.468301  
1429.000000	79.111027  
1428.000000	81.843113  
1427.000000	83.696866  
1426.000000	85.047531  
1425.000000	86.196660  
1424.000000	87.160325  
1423.000000	87.824630  
1422.000000	88.205170  
1421.000000	88.536429  
1420.000000	89.088821  
1419.000000	89.976716  
1418.000000	91.098904  
1417.000000	92.306303  
1416.000000	93.485283  
1415.000000	94.647097  
1414.000000	95.812678  
1413.000000	96.980786  
1412.000000	98.055362  
1411.000000	98.949193  
1410.000000	99.616003  
1409.000000	100.071167 
1408.000000	100.317406 
1407.000000	100.313115 
1406.000000	99.992465  
1405.000000	99.342012  
1404.000000	98.447084  
1403.000000	97.456336  
1402.000000	96.503400  
1401.000000	95.653867  
1400.000000	94.939112  
1399.000000	94.396615  
1398.000000	94.044780  
1397.000000	93.831276  
1396.000000	93.660593  
1395.000000	93.490695  
1394.000000	93.412804  
1393.000000	93.584918  
1392.000000	94.072055  
1391.000000	94.782876  
1390.000000	95.626950  
1389.000000	96.618127  
1388.000000	97.724270  
1387.000000	98.716139  
1386.000000	99.329519  
1385.000000	99.510216  
1384.000000	99.342536  
1383.000000	98.869848  
1382.000000	98.111724  
1381.000000	97.160720  
1380.000000	96.116876  
1379.000000	95.025277  
1378.000000	93.952536  
1377.000000	92.977643  
1376.000000	92.065882  
1375.000000	91.104817  
1374.000000	90.125584  
1373.000000	89.311385  
1372.000000	88.759183  
1371.000000	88.369178  
1370.000000	88.008856  
1369.000000	87.634420  
1368.000000	87.248945  
1367.000000	86.845421  
1366.000000	86.440563  
1365.000000	86.056685  
1364.000000	85.704231  
1363.000000	85.407257  
1362.000000	85.254287  
1361.000000	85.310959  
1360.000000	85.558128  
1359.000000	85.912299  
1358.000000	86.329102  
1357.000000	86.791181  
1356.000000	87.283349  
1355.000000	87.771821  
1354.000000	88.245892  
1353.000000	88.712787  
1352.000000	89.192342  
1351.000000	89.697957  
1350.000000	90.238857  
1349.000000	90.816593  
1348.000000	91.430735  
1347.000000	92.073631  
1346.000000	92.731499  
1345.000000	93.386244  
1344.000000	94.013309  
1343.000000	94.577980  
1342.000000	95.061326  
1341.000000	95.476102  
1340.000000	95.833587  
1339.000000	96.100497  
1338.000000	96.242403  
1337.000000	96.279788  
1336.000000	96.270203  
1335.000000	96.231818  
1334.000000	96.149325  
1333.000000	96.011233  
1332.000000	95.817255  
1331.000000	95.544934  
1330.000000	95.175623  
1329.000000	94.717621  
1328.000000	94.203186  
1327.000000	93.655347  
1326.000000	93.100094  
1325.000000	92.569613  
1324.000000	92.100501  
1323.000000	91.715002  
1322.000000	91.427540  
1321.000000	91.242766  
1320.000000	91.153931  
1319.000000	91.139149  
1318.000000	91.168570  
1317.000000	91.213250  
1316.000000	91.250276  
1315.000000	91.256213  
1314.000000	91.205072  
1313.000000	91.078352  
1312.000000	90.885853  
1311.000000	90.662765  
1310.000000	90.456771  
1309.000000	90.313792  
1308.000000	90.270209  
1307.000000	90.330052  
1306.000000	90.456867  
1305.000000	90.602707  
1304.000000	90.737533  
1303.000000	90.853285  
1302.000000	90.941095  
1301.000000	91.001629  
1300.000000	91.039514  
1299.000000	91.059780  
1298.000000	91.052961  
1297.000000	91.018939  
1296.000000	90.965414  
1295.000000	90.896558  
1294.000000	90.798306  
1293.000000	90.653061  
1292.000000	90.444588  
1291.000000	90.149974  
1290.000000	89.740324  
1289.000000	89.199209  
1288.000000	88.536143  
1287.000000	87.779951  
1286.000000	86.969232  
1285.000000	86.143088  
1284.000000	85.339641  
1283.000000	84.589171  
1282.000000	83.914852  
1281.000000	83.326363  
1280.000000	82.822656  
1279.000000	82.387304  
1278.000000	81.987833  
1277.000000	81.581425  
1276.000000	81.132435  
1275.000000	80.626463  
1274.000000	80.059862  
1273.000000	79.440832  
1272.000000	78.796243  
1271.000000	78.173661  
1270.000000	77.607321  
1269.000000	77.106666  
1268.000000	76.672768  
1267.000000	76.313352  
1266.000000	76.027226  
1265.000000	75.800657  
1264.000000	75.624084  
1263.000000	75.488185  
1262.000000	75.363206  
1261.000000	75.203013  
1260.000000	74.979376  
1259.000000	74.681997  
1258.000000	74.301362  
1257.000000	73.825955  
1256.000000	73.270082  
1255.000000	72.656130  
1254.000000	72.001123  
1253.000000	71.312689  
1252.000000	70.620799  
1251.000000	69.956111  
1250.000000	69.344592  
1249.000000	68.807077  
1248.000000	68.384099  
1247.000000	68.108916  
1246.000000	67.995643  
1245.000000	68.039155  
1244.000000	68.234395  
1243.000000	68.564677  
1242.000000	69.002270  
1241.000000	69.516682  
1240.000000	70.089602  
1239.000000	70.705151  
1238.000000	71.346044  
1237.000000	71.993374  
1236.000000	72.631645  
1235.000000	73.244047  
1234.000000	73.813581  
1233.000000	74.323701  
1232.000000	74.763607  
1231.000000	75.125336  
1230.000000	75.403833  
1229.000000	75.589370  
1228.000000	75.678944  
1227.000000	75.670838  
1226.000000	75.573396  
1225.000000	75.386524  
1224.000000	75.124645  
1223.000000	74.799585  
1222.000000	74.430966  
1221.000000	74.014544  
1220.000000	73.556375  
1219.000000	73.056364  
1218.000000	72.521972  
1217.000000	71.940302  
1216.000000	71.315526  
1215.000000	70.653247  
1214.000000	69.956851  
1213.000000	69.210171  
1212.000000	68.413043  
1211.000000	67.574191  
1210.000000	66.690421  
1209.000000	65.740489  
1208.000000	64.721345  
1207.000000	63.645315  
1206.000000	62.517189  
1205.000000	61.333346  
1204.000000	60.119938  
1203.000000	58.919286  
1202.000000	57.767653  
1201.000000	56.694579  
1200.000000	55.761051  
1199.000000	55.038022  
1198.000000	54.576396  
1197.000000	54.412078  
1196.000000	54.581665  
1195.000000	55.108904  
1194.000000	55.969381  
1193.000000	57.116389  
1192.000000	58.487415  
1191.000000	60.000157  
1190.000000	61.532950  
1189.000000	62.956070  
1188.000000	64.155960  
1187.000000	65.034651  
1186.000000	65.512442  
1185.000000	65.540671  
1184.000000	65.121984  
1183.000000	64.296579  
1182.000000	63.129782  
1181.000000	61.697554  
1180.000000	60.092568  
1179.000000	58.421301  
1178.000000	56.787323  
1177.000000	55.269026  
1176.000000	53.928899  
1175.000000	52.830553  
1174.000000	52.024841  
1173.000000	51.529431  
1172.000000	51.338768  
1171.000000	51.458597  
1170.000000	51.880717  
1169.000000	52.581024  
1168.000000	53.517985  
1167.000000	54.684805  
1166.000000	56.052255  
1165.000000	57.583189  
1164.000000	59.220433  
1163.000000	60.947895  
1162.000000	62.733268  
1161.000000	64.541959  
1160.000000	66.334819  
1159.000000	68.105506  
1158.000000	69.842505  
1157.000000	71.533036  
1156.000000	73.174571  
1155.000000	74.779510  
1154.000000	76.340389  
1153.000000	77.830600  
1152.000000	79.229736  
1151.000000	80.529761  
1150.000000	81.709003  
1149.000000	82.737398  
1148.000000	83.597683  
1147.000000	84.292888  
1146.000000	84.824228  
1145.000000	85.205173  
1144.000000	85.465669  
1143.000000	85.650658  
1142.000000	85.789179  
1141.000000	85.919260  
1140.000000	86.084437  
1139.000000	86.334276  
1138.000000	86.686420  
1137.000000	87.154436  
1136.000000	87.739014  
1135.000000	88.432884  
1134.000000	89.199876  
1133.000000	90.008735  
1132.000000	90.833592  
1131.000000	91.648387  
1130.000000	92.417621  
1129.000000	93.119192  
1128.000000	93.743300  
1127.000000	94.274854  
1126.000000	94.696521  
1125.000000	95.011663  
1124.000000	95.244932  
1123.000000	95.414686  
1122.000000	95.537447  
1121.000000	95.639228  
1120.000000	95.749378  
1119.000000	95.866394  
1118.000000	95.972132  
1117.000000	96.048378  
1116.000000	96.081948  
1115.000000	96.045541  
1114.000000	95.918822  
1113.000000	95.701909  
1112.000000	95.405960  
1111.000000	95.035338  
1110.000000	94.600987  
1109.000000	94.134235  
1108.000000	93.678283  
1107.000000	93.274688  
1106.000000	92.966961  
1105.000000	92.797613  
1104.000000	92.790508  
1103.000000	92.937731  
1102.000000	93.209362  
1101.000000	93.566274  
1100.000000	93.968009  
1099.000000	94.372415  
1098.000000	94.742584  
1097.000000	95.053768  
1096.000000	95.301985  
1095.000000	95.494723  
1094.000000	95.644760  
1093.000000	95.767664  
1092.000000	95.888948  
1091.000000	96.033358  
1090.000000	96.211528  
1089.000000	96.428632  
1088.000000	96.686935  
1087.000000	96.988534  
1086.000000	97.316598  
1085.000000	97.665953  
1084.000000	98.034095  
1083.000000	98.413109  
1082.000000	98.766422  
1081.000000	99.060153  
1080.000000	99.276232  
1079.000000	99.396681  
1078.000000	99.392652  
1077.000000	99.241709  
1076.000000	98.938083  
1075.000000	98.473167  
1074.000000	97.843742  
1073.000000	97.084665  
1072.000000	96.280288  
1071.000000	95.535230  
1070.000000	94.954609  
1069.000000	94.630575  
1068.000000	94.606900  
1067.000000	94.844651  
1066.000000	95.251727  
1065.000000	95.743775  
1064.000000	96.268630  
1063.000000	96.792531  
1062.000000	97.297573  
1061.000000	97.790122  
1060.000000	98.278617  
1059.000000	98.760199  
1058.000000	99.227714  
1057.000000	99.691152  
1056.000000	100.155687 
1055.000000	100.609946 
1054.000000	101.028585 
1053.000000	101.391148 
1052.000000	101.677370 
1051.000000	101.869583 
1050.000000	101.965951 
1049.000000	101.981186 
1048.000000	101.933670 
1047.000000	101.834964 
1046.000000	101.698160 
1045.000000	101.540327 
1044.000000	101.374745 
1043.000000	101.206994 
1042.000000	101.036930 
1041.000000	100.868439 
1040.000000	100.706458 
1039.000000	100.556373 
1038.000000	100.412607 
1037.000000	100.265264 
1036.000000	100.098729 
1035.000000	99.897241  
1034.000000	99.643731  
1033.000000	99.332141  
1032.000000	98.968672  
1031.000000	98.554539  
1030.000000	98.081755  
1029.000000	97.547101  
1028.000000	96.970987  
1027.000000	96.377420  
1026.000000	95.788502  
1025.000000	95.230245  
1024.000000	94.739007  
1023.000000	94.333863  
1022.000000	94.014573  
1021.000000	93.780493  
1020.000000	93.639039  
1019.000000	93.583536  
1018.000000	93.594312  
1017.000000	93.663120  
1016.000000	93.793725  
1015.000000	93.980360  
1014.000000	94.207525  
1013.000000	94.473791  
1012.000000	94.783854  
1011.000000	95.130085  
1010.000000	95.491361  
1009.000000	95.857930  
1008.000000	96.222710  
1007.000000	96.571612  
1006.000000	96.886610  
1005.000000	97.164487  
1004.000000	97.404360  
1003.000000	97.600340  
1002.000000	97.747659  
1001.000000	97.854638  
1000.000000	97.932052  
999.000000	 97.985506  
998.000000	 98.022079  
997.000000	 98.054718  
996.000000	 98.091554  
995.000000	 98.131489  
994.000000	 98.173522  
993.000000	 98.223376  
992.000000	 98.288130  
991.000000	 98.370456  
990.000000	 98.471665  
989.000000	 98.597288  
988.000000	 98.756480  
987.000000	 98.955035  
986.000000	 99.190354  
985.000000	 99.456501  
984.000000	 99.751472  
983.000000	 100.069522 
982.000000	 100.394415 
981.000000	 100.705194 
980.000000	 100.990509 
979.000000	 101.242637 
978.000000	 101.453447 
977.000000	 101.621818 
976.000000	 101.763010 
975.000000	 101.893115 
974.000000	 102.018642 
973.000000	 102.148342 
972.000000	 102.297878 
971.000000	 102.473807 
970.000000	 102.666449 
969.000000	 102.872419 
968.000000	 103.097295 
967.000000	 103.335285 
966.000000	 103.564786 
965.000000	 103.775453 
964.000000	 103.970742 
963.000000	 104.144525 
962.000000	 104.281640 
961.000000	 104.382681 
960.000000	 104.462099 
959.000000	 104.520416 
958.000000	 104.548168 
957.000000	 104.546427 
956.000000	 104.524493 
955.000000	 104.476690 
954.000000	 104.395532 
953.000000	 104.287004 
952.000000	 104.162383 
951.000000	 104.014635 
950.000000	 103.833985 
949.000000	 103.623437 
948.000000	 103.395295 
947.000000	 103.152608 
946.000000	 102.897286 
945.000000	 102.636790 
944.000000	 102.382206 
943.000000	 102.139091 
942.000000	 101.912617 
941.000000	 101.709747 
940.000000	 101.536321 
939.000000	 101.393032 
938.000000	 101.278257 
937.000000	 101.188158 
936.000000	 101.115822 
935.000000	 101.050853 
934.000000	 100.983119 
933.000000	 100.905108 
932.000000	 100.813341 
931.000000	 100.703692 
930.000000	 100.572061 
929.000000	 100.417447 
928.000000	 100.247597 
927.000000	 100.067234 
926.000000	 99.875473  
925.000000	 99.671125  
924.000000	 99.464845  
923.000000	 99.263334  
922.000000	 99.064040  
921.000000	 98.862195  
920.000000	 98.666548  
919.000000	 98.486876  
918.000000	 98.328900  
917.000000	 98.202180  
916.000000	 98.126196  
915.000000	 98.111724  
914.000000	 98.154735  
913.000000	 98.248171  
912.000000	 98.387217  
911.000000	 98.556065  
910.000000	 98.733830  
909.000000	 98.913955  
908.000000	 99.101471  
907.000000	 99.290823  
906.000000	 99.467349  
905.000000	 99.627876  
904.000000	 99.777126  
903.000000	 99.907898  
902.000000	 100.008964 
901.000000	 100.085043 
900.000000	 100.150537 
899.000000	 100.205755 
898.000000	 100.243806 
897.000000	 100.265049 
896.000000	 100.275325 
895.000000	 100.271821 
894.000000	 100.250506 
893.000000	 100.212597 
892.000000	 100.156784 
891.000000	 100.073218 
890.000000	 99.955534  
889.000000	 99.807643  
888.000000	 99.634933  
887.000000	 99.441123  
886.000000	 99.240231  
885.000000	 99.059128  
884.000000	 98.925113  
883.000000	 98.853683  
882.000000	 98.851466  
881.000000	 98.919677  
880.000000	 99.052858  
879.000000	 99.228620  
878.000000	 99.410629  
877.000000	 99.562120  
876.000000	 99.663043  
875.000000	 99.698567  
874.000000	 99.650359  
873.000000	 99.499917  
872.000000	 99.251413  
871.000000	 98.922300  
870.000000	 98.539495  
869.000000	 98.144245  
868.000000	 97.802782  
867.000000	 97.582173  
866.000000	 97.522592  
865.000000	 97.632646  
864.000000	 97.891783  
863.000000	 98.250150  
862.000000	 98.637628  
861.000000	 98.998665  
860.000000	 99.306654  
859.000000	 99.552512  
858.000000	 99.736070  
857.000000	 99.873089  
856.000000	 99.985933  
855.000000	 100.081419 
854.000000	 100.155186 
853.000000	 100.216221 
852.000000	 100.282692 
851.000000	 100.354838 
850.000000	 100.416731 
849.000000	 100.461030 
848.000000	 100.490450 
847.000000	 100.499367 
846.000000	 100.482702 
845.000000	 100.454926 
844.000000	 100.445604 
843.000000	 100.476455 
842.000000	 100.556254 
841.000000	 100.684952 
840.000000	 100.849246 
839.000000	 101.024866 
838.000000	 101.193666 
837.000000	 101.355147 
836.000000	 101.514673 
835.000000	 101.673555 
834.000000	 101.833152 
833.000000	 102.000808 
832.000000	 102.181577 
831.000000	 102.372932 
830.000000	 102.568697 
829.000000	 102.765631 
828.000000	 102.962136 
827.000000	 103.154492 
826.000000	 103.334617 
825.000000	 103.497076 
824.000000	 103.643012 
823.000000	 103.776121 
822.000000	 103.893494 
821.000000	 103.992438 
820.000000	 104.076242 
819.000000	 104.149508 
818.000000	 104.204154 
817.000000	 104.232335 
816.000000	 104.234910 
815.000000	 104.220366 
814.000000	 104.187822 
813.000000	 104.141497 
812.000000	 104.088282 
811.000000	 104.033064 
810.000000	 103.964686 
809.000000	 103.881788 
808.000000	 103.792071 
807.000000	 103.696274 
806.000000	 103.578209 
805.000000	 103.430700 
804.000000	 103.262138 
803.000000	 103.074526 
802.000000	 102.852725 
801.000000	 102.581810 
800.000000	 102.256703 
799.000000	 101.874423 
798.000000	 101.439499 
797.000000	 100.981760 
796.000000	 100.551605 
795.000000	 100.196814 
794.000000	 99.953603  
793.000000	 99.848222  
792.000000	 99.887061  
791.000000	 100.046133 
790.000000	 100.285506 
789.000000	 100.569486 
788.000000	 100.865936 
787.000000	 101.142811 
786.000000	 101.377964 
785.000000	 101.571321 
784.000000	 101.729249 
783.000000	 101.852822 
782.000000	 101.938867 
781.000000	 101.991724 
780.000000	 102.016925 
779.000000	 102.017593 
778.000000	 101.995229 
777.000000	 101.952219 
776.000000	 101.888966 
775.000000	 101.802134 
774.000000	 101.688551 
773.000000	 101.548194 
772.000000	 101.383042 
771.000000	 101.193380 
770.000000	 100.975871 
769.000000	 100.732803 
768.000000	 100.472998 
767.000000	 100.204157 
766.000000	 99.916505  
765.000000	 99.600076  
764.000000	 99.254608  
763.000000	 98.891353  
762.000000	 98.510026  
761.000000	 98.113846  
760.000000	 97.707867  
759.000000	 97.297286  
758.000000	 96.868205  
757.000000	 96.413540  
756.000000	 95.933341  
755.000000	 95.427155  
754.000000	 94.877767  
753.000000	 94.279742  
752.000000	 93.642640  
751.000000	 92.975783  
750.000000	 92.273330  
749.000000	 91.534805  
748.000000	 90.769219  
747.000000	 89.982056  
746.000000	 89.171338  
745.000000	 88.343214  
744.000000	 87.510251  
743.000000	 86.673140  
742.000000	 85.823035  
741.000000	 84.958696  
740.000000	 84.085607  
739.000000	 83.203506  
738.000000	 82.307839  
737.000000	 81.404781  
736.000000	 80.497622  
735.000000	 79.584145  
734.000000	 78.659582  
733.000000	 77.740192  
732.000000	 76.837158  
731.000000	 75.955033  
730.000000	 75.092506  
729.000000	 74.270725  
728.000000	 73.508620  
727.000000	 72.826910  
726.000000	 72.248649  
725.000000	 71.809077  
724.000000	 71.520256  
723.000000	 71.369075  
722.000000	 71.331071  
721.000000	 71.381545  
720.000000	 71.479916  
719.000000	 71.584939  
718.000000	 71.686267  
717.000000	 71.800136  
716.000000	 71.937060  
715.000000	 72.091197  
714.000000	 72.266268  
713.000000	 72.469496  
712.000000	 72.699785  
711.000000	 72.944235  
710.000000	 73.205661  
709.000000	 73.488926  
708.000000	 73.793220  
707.000000	 74.106383  
706.000000	 74.425983  
705.000000	 74.751973  
704.000000	 75.084328  
703.000000	 75.417757  
702.000000	 75.754475  
701.000000	 76.102542  
700.000000	 76.472926  
699.000000	 76.863718  
698.000000	 77.266526  
697.000000	 77.678799  
696.000000	 78.106880  
695.000000	 78.546595  
694.000000	 78.986382  
693.000000	 79.428124  
692.000000	 79.884219  
691.000000	 80.353188  
690.000000	 80.826783  
689.000000	 81.316757  
688.000000	 81.836056  
687.000000	 82.364821  
686.000000	 82.877540  
685.000000	 83.391213  
684.000000	 83.934450  
683.000000	 84.497499  
682.000000	 85.054755  
681.000000	 85.619592  
680.000000	 86.214756  
679.000000	 86.819720  
678.000000	 87.410306  
677.000000	 88.006377  
676.000000	 88.619971  
675.000000	 89.218091  
674.000000	 89.792490  
673.000000	 90.371131  
672.000000	 90.926647  
671.000000	 91.418266  
670.000000	 91.952300  
669.000000	 92.675995  
668.000000	 93.481040  
667.000000	 94.068932  
666.000000	 94.363045  
665.000000	 94.596886  
664.000000	 94.957590  
663.000000	 95.392894  
662.000000	 95.802140  
661.000000	 96.190762  
660.000000	 96.584558  
659.000000	 96.964097  
658.000000	 97.312283  
657.000000	 97.638010  
656.000000	 97.939801  
655.000000	 98.214340  
654.000000	 98.473501  
653.000000	 98.731470  
652.000000	 98.981380  
651.000000	 99.218750  
650.000000	 99.448466  
649.000000	 99.677991  
648.000000	 99.901008  
647.000000	 100.107502 
646.000000	 100.295090 
645.000000	 100.474810 
644.000000	 100.654292 
643.000000	 100.831651 
642.000000	 100.998854 
641.000000	 101.157045 
640.000000	 101.310181 
639.000000	 101.451754 
638.000000	 101.571440 
637.000000	 101.676583 
636.000000	 101.782274 
635.000000	 101.881766 
634.000000	 101.956486 
633.000000	 102.008461 
632.000000	 102.053427 
631.000000	 102.087521 
630.000000	 102.101778 
629.000000	 102.107667 
628.000000	 102.116942 
627.000000	 102.108716 
626.000000	 102.064371 
625.000000	 102.000880 
624.000000	 101.941585 
623.000000	 101.875925 
622.000000	 101.789522 
621.000000	 101.696467 
620.000000	 101.612377 
619.000000	 101.524305 
618.000000	 101.416420 
617.000000	 101.295924 
616.000000	 101.175141 
615.000000	 101.055479 
614.000000	 100.944185 
613.000000	 100.857162 
612.000000	 100.796079 
611.000000	 100.747299 
610.000000	 100.707411 
609.000000	 100.685930 
608.000000	 100.683879 
607.000000	 100.693583 
606.000000	 100.717020 
605.000000	 100.760126 
604.000000	 100.814485 
603.000000	 100.865173 
602.000000	 100.913739 
601.000000	 100.967979 
600.000000	 101.024532 
599.000000	 101.074838 
598.000000	 101.124954 
597.000000	 101.185250 
596.000000	 101.254439 
595.000000	 101.319193 
594.000000	 101.371550 
593.000000	 101.412057 
592.000000	 101.446032 
591.000000	 101.476740 
590.000000	 101.507949 
589.000000	 101.545381 
588.000000	 101.593923 
587.000000	 101.648998 
586.000000	 101.703262 
585.000000	 101.761627 
584.000000	 101.839113 
583.000000	 101.941061 
582.000000	 102.061152 
581.000000	 102.197575 
580.000000	 102.351570 
579.000000	 102.514028 
578.000000	 102.676057 
577.000000	 102.847170 
576.000000	 103.033709 
575.000000	 103.217411 
574.000000	 103.383374 
573.000000	 103.551602 
572.000000	 103.741121 
571.000000	 103.932666 
570.000000	 104.101109 
569.000000	 104.258537 
568.000000	 104.425072 
567.000000	 104.593253 
566.000000	 104.752993 
565.000000	 104.917120 
564.000000	 105.090451 
563.000000	 105.251812 
562.000000	 105.392551 
561.000000	 105.532336 
560.000000	 105.681037 
559.000000	 105.826807 
558.000000	 105.971789 
557.000000	 106.132793 
556.000000	 106.301283 
555.000000	 106.449484 
554.000000	 106.578564 
553.000000	 106.716227 
552.000000	 106.867980 
551.000000	 107.015490 
550.000000	 107.156133 
549.000000	 107.301950 
548.000000	 107.446718 
547.000000	 107.575559 
546.000000	 107.692551 
545.000000	 107.809901 
544.000000	 107.922172 
543.000000	 108.021235 
542.000000	 108.116745 
541.000000	 108.222270 
540.000000	 108.332920 
539.000000	 108.437061 
538.000000	 108.533477 
537.000000	 108.628082 
536.000000	 108.719944 
535.000000	 108.802866 
534.000000	 108.874464 
533.000000	 108.939743 
532.000000	 109.005856 
531.000000	 109.074401 
530.000000	 109.141540 
529.000000	 109.206199 
528.000000	 109.270071 
527.000000	 109.331059 
526.000000	 109.386491 
525.000000	 109.441471 
524.000000	 109.499263 
523.000000	 109.550380 
522.000000	 109.593534 
521.000000	 109.650182 
520.000000	 109.728884 
519.000000	 109.797668 
518.000000	 109.828829 
517.000000	 109.843969 
516.000000	 109.875249 
515.000000	 109.915733 
514.000000	 109.949445 
513.000000	 109.988260 
512.000000	 110.037684 
511.000000	 110.070919 
510.000000	 110.076498 
509.000000	 110.084438 
508.000000	 110.115170 
507.000000	 110.152649 
506.000000	 110.191035 
505.000000	 110.250830 
504.000000	 110.329794 
503.000000	 110.394191 
502.000000	 110.432195 
501.000000	 110.463905 
500.000000	 110.496640 
499.000000	 110.523200 
498.000000	 110.558652 
497.000000	 110.621738 
496.000000	 110.689854 
495.000000	 110.728073 
494.000000	 110.747861 
493.000000	 110.784387 
492.000000	 110.836505 
491.000000	 110.880303 
490.000000	 110.917782 
489.000000	 110.964798 
488.000000	 111.015033 
487.000000	 111.052703 
486.000000	 111.078619 
485.000000	 111.099100 
484.000000	 111.112999 
483.000000	 111.131501 
482.000000	 111.179947 
481.000000	 111.260890 
480.000000	 111.340856 
479.000000	 111.388397 
478.000000	 111.408281 
477.000000	 111.432147 
476.000000	 111.485123 
475.000000	 111.565399 
474.000000	 111.648154 
473.000000	 111.706519 
472.000000	 111.727213 
471.000000	 111.714816 
470.000000	 111.700749 
469.000000	 111.729836 
468.000000	 111.803388 
467.000000	 111.859178 
466.000000	 111.853003 
465.000000	 111.821961 
464.000000	 111.815047 
463.000000	 111.813068 
462.000000	 111.794137 
461.000000	 111.808371 
460.000000	 111.905407 
459.000000	 112.040162 
458.000000	 112.128496 
457.000000	 112.142562 
456.000000	 112.099337 
455.000000	 112.016463 
454.000000	 111.933422 
453.000000	 111.898016 
452.000000	 111.895179 
451.000000	 111.863875 
450.000000	 111.801409 
449.000000	 111.760330 
448.000000	 111.744379 
447.000000	 111.714601 
446.000000	 111.692690 
445.000000	 111.729598 
444.000000	 111.779189 
443.000000	 111.737275 
442.000000	 111.598706 
441.000000	 111.446976 
440.000000	 111.321973 
439.000000	 111.219596 
438.000000	 111.173486 
437.000000	 111.193585 
436.000000	 111.205863 
435.000000	 111.165738 
434.000000	 111.158967 
433.000000	 111.248707 
432.000000	 111.369371 
431.000000	 111.457443 
430.000000	 111.551737 
429.000000	 111.693096 
428.000000	 111.839556 
427.000000	 111.943769 
426.000000	 112.049555 
425.000000	 112.256789 
424.000000	 112.570333 
423.000000	 112.865376 
422.000000	 113.162374 
421.000000	 113.775491 
420.000000	 114.796042 
419.000000	 115.603137 
418.000000	 115.483880 
417.000000	 114.653611 
416.000000	 113.987112 
415.000000	 113.856291 
414.000000	 113.916277 
413.000000	 113.930344 
412.000000	 114.017438 
411.000000	 114.196825 
410.000000	 114.330673 
409.000000	 114.398431 
408.000000	 114.444327 
407.000000	 114.411616 
406.000000	 114.336824 
405.000000	 114.418649 
404.000000	 114.700794 
403.000000	 115.002250 
402.000000	 115.379047 
401.000000	 116.309738 
400.000000	 118.108844 

