PE IR       SPECTRUM    SPECTRUM    ASCII       PEDS        1.60        
  -1
UVLEN3.ASC
14/01/17
14:26:32.00
14/01/17
14:26:32.00
Admin

400.000000
8









2002,4.07    
MIRTGS : RIGHTBACK : INTERNAL 2
MIR : ON : INTERNAL 2
OPTKBR

0.200000
1
4.000000
STRONG
RATIO
SPECTRUM
UNLOCKED 256

DOUBLE
8
FORWARD
1
0
0


1.000000
RATIO


1
0
TRUE
41620
0
LEFT NOT FITTED RIGHT NOT FITTED 0
NONE
NONE
15600
21.200000
8.970000
41618
TRUE
1 0 8 72 0 0 0 0 

15798.013000






#HDR
-1
-1
#GR
CM-1
%T
0.00002384185791015625
0.0
4000.000000
-1.000000
3601
8
104.548597
95.862817
#DATA
4000.000000	104.548597 
3999.000000	104.547119 
3998.000000	104.546618 
3997.000000	104.545474 
3996.000000	104.543352 
3995.000000	104.541611 
3994.000000	104.541134 
3993.000000	104.541230 
3992.000000	104.540753 
3991.000000	104.539632 
3990.000000	104.538369 
3989.000000	104.536914 
3988.000000	104.534912 
3987.000000	104.532599 
3986.000000	104.529666 
3985.000000	104.525446 
3984.000000	104.520225 
3983.000000	104.515957 
3982.000000	104.514765 
3981.000000	104.517078 
3980.000000	104.521346 
3979.000000	104.525089 
3978.000000	104.525828 
3977.000000	104.522919 
3976.000000	104.518151 
3975.000000	104.514336 
3974.000000	104.512906 
3973.000000	104.512715 
3972.000000	104.511475 
3971.000000	104.507946 
3970.000000	104.503488 
3969.000000	104.501247 
3968.000000	104.503083 
3967.000000	104.507255 
3966.000000	104.509711 
3965.000000	104.508042 
3964.000000	104.503870 
3963.000000	104.500842 
3962.000000	104.500770 
3961.000000	104.502487 
3960.000000	104.503965 
3959.000000	104.503393 
3958.000000	104.500246 
3957.000000	104.495644 
3956.000000	104.491257 
3955.000000	104.488086 
3954.000000	104.487109 
3953.000000	104.490184 
3952.000000	104.497432 
3951.000000	104.504132 
3950.000000	104.504656 
3949.000000	104.499292 
3948.000000	104.493665 
3947.000000	104.491758 
3946.000000	104.490351 
3945.000000	104.484105 
3944.000000	104.473757 
3943.000000	104.466462 
3942.000000	104.467082 
3941.000000	104.471182 
3940.000000	104.471826 
3939.000000	104.468512 
3938.000000	104.466938 
3937.000000	104.470181 
3936.000000	104.474735 
3935.000000	104.474759 
3934.000000	104.469299 
3933.000000	104.462194 
3932.000000	104.457426 
3931.000000	104.455947 
3930.000000	104.457640 
3929.000000	104.462146 
3928.000000	104.466128 
3927.000000	104.464745 
3926.000000	104.457688 
3925.000000	104.450917 
3924.000000	104.450130 
3923.000000	104.454040 
3922.000000	104.455447 
3921.000000	104.449343 
3920.000000	104.438424 
3919.000000	104.429554 
3918.000000	104.426074 
3917.000000	104.427146 
3916.000000	104.432010 
3915.000000	104.439020 
3914.000000	104.443240 
3913.000000	104.441833 
3912.000000	104.438686 
3911.000000	104.438710 
3910.000000	104.441142 
3909.000000	104.442596 
3908.000000	104.442071 
3907.000000	104.437947 
3906.000000	104.427790 
3905.000000	104.415416 
3904.000000	104.410290 
3903.000000	104.415583 
3902.000000	104.422926 
3901.000000	104.422521 
3900.000000	104.415464 
3899.000000	104.412031 
3898.000000	104.418540 
3897.000000	104.429960 
3896.000000	104.436922 
3895.000000	104.437208 
3894.000000	104.434490 
3893.000000	104.429912 
3892.000000	104.422712 
3891.000000	104.417371 
3890.000000	104.420232 
3889.000000	104.428696 
3888.000000	104.432511 
3887.000000	104.427170 
3886.000000	104.420208 
3885.000000	104.421496 
3884.000000	104.429817 
3883.000000	104.433321 
3882.000000	104.423475 
3881.000000	104.407382 
3880.000000	104.400396 
3879.000000	104.407835 
3878.000000	104.420018 
3877.000000	104.423427 
3876.000000	104.414105 
3875.000000	104.401493 
3874.000000	104.399919 
3873.000000	104.410791 
3872.000000	104.416918 
3871.000000	104.404640 
3870.000000	104.386353 
3869.000000	104.385089 
3868.000000	104.399847 
3867.000000	104.406404 
3866.000000	104.392623 
3865.000000	104.371976 
3864.000000	104.361605 
3863.000000	104.364180 
3862.000000	104.372549 
3861.000000	104.379677 
3860.000000	104.382157 
3859.000000	104.381203 
3858.000000	104.380464 
3857.000000	104.379701 
3856.000000	104.373526 
3855.000000	104.358077 
3854.000000	104.338002 
3853.000000	104.326653 
3852.000000	104.333901 
3851.000000	104.352974 
3850.000000	104.366278 
3849.000000	104.367637 
3848.000000	104.366469 
3847.000000	104.368686 
3846.000000	104.368185 
3845.000000	104.360699 
3844.000000	104.352235 
3843.000000	104.347634 
3842.000000	104.343581 
3841.000000	104.336619 
3840.000000	104.330682 
3839.000000	104.331898 
3838.000000	104.340195 
3837.000000	104.348587 
3836.000000	104.349446 
3835.000000	104.341435 
3834.000000	104.330372 
3833.000000	104.323983 
3832.000000	104.326629 
3831.000000	104.335951 
3830.000000	104.343771 
3829.000000	104.341435 
3828.000000	104.327273 
3827.000000	104.310464 
3826.000000	104.305648 
3825.000000	104.317617 
3824.000000	104.331374 
3823.000000	104.327607 
3822.000000	104.309129 
3821.000000	104.299879 
3820.000000	104.313850 
3819.000000	104.336094 
3818.000000	104.341173 
3817.000000	104.324769 
3816.000000	104.308032 
3815.000000	104.309868 
3814.000000	104.324507 
3813.000000	104.332566 
3812.000000	104.327583 
3811.000000	104.318904 
3810.000000	104.311871 
3809.000000	104.299926 
3808.000000	104.280328 
3807.000000	104.266452 
3806.000000	104.273629 
3805.000000	104.294395 
3804.000000	104.301333 
3803.000000	104.281473 
3802.000000	104.255485 
3801.000000	104.251623 
3800.000000	104.270172 
3799.000000	104.287171 
3798.000000	104.286646 
3797.000000	104.275250 
3796.000000	104.268741 
3795.000000	104.273295 
3794.000000	104.282116 
3793.000000	104.286098 
3792.000000	104.284024 
3791.000000	104.279804 
3790.000000	104.276466 
3789.000000	104.274535 
3788.000000	104.272770 
3787.000000	104.268884 
3786.000000	104.263353 
3785.000000	104.262566 
3784.000000	104.271650 
3783.000000	104.285240 
3782.000000	104.291057 
3781.000000	104.283213 
3780.000000	104.268693 
3779.000000	104.259896 
3778.000000	104.260873 
3777.000000	104.265403 
3776.000000	104.267287 
3775.000000	104.267382 
3774.000000	104.267859 
3773.000000	104.265713 
3772.000000	104.257607 
3771.000000	104.248237 
3770.000000	104.246711 
3769.000000	104.254364 
3768.000000	104.261112 
3767.000000	104.257011 
3766.000000	104.245948 
3765.000000	104.241418 
3764.000000	104.249238 
3763.000000	104.260039 
3762.000000	104.261326 
3761.000000	104.252290 
3760.000000	104.242444 
3759.000000	104.240274 
3758.000000	104.245901 
3757.000000	104.254412 
3756.000000	104.261946 
3755.000000	104.264998 
3754.000000	104.256343 
3753.000000	104.231071 
3752.000000	104.196739 
3751.000000	104.171824 
3750.000000	104.170489 
3749.000000	104.192686 
3748.000000	104.222941 
3747.000000	104.236149 
3746.000000	104.216122 
3745.000000	104.179096 
3744.000000	104.161238 
3743.000000	104.173946 
3742.000000	104.191398 
3741.000000	104.191493 
3740.000000	104.181003 
3739.000000	104.169559 
3738.000000	104.148650 
3737.000000	104.111266 
3736.000000	104.068899 
3735.000000	104.036092 
3734.000000	104.014205 
3733.000000	103.996586 
3732.000000	103.982138 
3731.000000	103.975152 
3730.000000	103.975200 
3729.000000	103.973722 
3728.000000	103.966164 
3727.000000	103.962063 
3726.000000	103.972387 
3725.000000	103.991484 
3724.000000	104.006028 
3723.000000	104.015660 
3722.000000	104.029512 
3721.000000	104.049777 
3720.000000	104.071211 
3719.000000	104.092717 
3718.000000	104.116415 
3717.000000	104.140520 
3716.000000	104.158329 
3715.000000	104.161167 
3714.000000	104.139375 
3713.000000	104.092049 
3712.000000	104.038143 
3711.000000	104.005384 
3710.000000	104.003667 
3709.000000	104.017996 
3708.000000	104.028487 
3707.000000	104.028511 
3706.000000	104.022049 
3705.000000	104.014587 
3704.000000	104.010963 
3703.000000	104.013466 
3702.000000	104.019403 
3701.000000	104.024147 
3700.000000	104.026865 
3699.000000	104.028320 
3698.000000	104.027581 
3697.000000	104.025053 
3696.000000	104.025721 
3695.000000	104.031419 
3694.000000	104.036521 
3693.000000	104.036808 
3692.000000	104.037332 
3691.000000	104.044818 
3690.000000	104.058408 
3689.000000	104.073715 
3688.000000	104.089307 
3687.000000	104.101848 
3686.000000	104.105567 
3685.000000	104.100918 
3684.000000	104.095363 
3683.000000	104.092955 
3682.000000	104.090976 
3681.000000	104.088258 
3680.000000	104.087185 
3679.000000	104.086756 
3678.000000	104.081392 
3677.000000	104.070210 
3676.000000	104.064416 
3675.000000	104.077553 
3674.000000	104.104828 
3673.000000	104.120016 
3672.000000	104.105138 
3671.000000	104.074478 
3670.000000	104.057741 
3669.000000	104.065132 
3668.000000	104.082250 
3667.000000	104.093456 
3666.000000	104.095935 
3665.000000	104.093909 
3664.000000	104.090857 
3663.000000	104.088878 
3662.000000	104.090714 
3661.000000	104.097270 
3660.000000	104.104137 
3659.000000	104.103398 
3658.000000	104.091525 
3657.000000	104.076623 
3656.000000	104.073262 
3655.000000	104.085683 
3654.000000	104.099845 
3653.000000	104.098582 
3652.000000	104.082465 
3651.000000	104.066371 
3650.000000	104.059195 
3649.000000	104.057931 
3648.000000	104.060602 
3647.000000	104.069423 
3646.000000	104.081320 
3645.000000	104.086351 
3644.000000	104.078340 
3643.000000	104.062414 
3642.000000	104.048633 
3641.000000	104.040050 
3640.000000	104.031658 
3639.000000	104.020237 
3638.000000	104.009246 
3637.000000	104.000449 
3636.000000	103.989124 
3635.000000	103.973269 
3634.000000	103.960323 
3633.000000	103.956341 
3632.000000	103.954291 
3631.000000	103.939771 
3630.000000	103.911519 
3629.000000	103.888893 
3628.000000	103.891468 
3627.000000	103.913402 
3626.000000	103.931355 
3625.000000	103.935241 
3624.000000	103.937125 
3623.000000	103.947877 
3622.000000	103.960490 
3621.000000	103.963232 
3620.000000	103.958082 
3619.000000	103.959155 
3618.000000	103.975749 
3617.000000	104.001736 
3616.000000	104.021644 
3615.000000	104.026865 
3614.000000	104.023051 
3613.000000	104.020333 
3612.000000	104.019522 
3611.000000	104.012107 
3610.000000	103.991794 
3609.000000	103.964328 
3608.000000	103.943848 
3607.000000	103.939437 
3606.000000	103.946661 
3605.000000	103.952836 
3604.000000	103.949618 
3603.000000	103.938674 
3602.000000	103.926944 
3601.000000	103.919911 
3600.000000	103.919768 
3599.000000	103.924298 
3598.000000	103.926658 
3597.000000	103.920578 
3596.000000	103.908252 
3595.000000	103.899645 
3594.000000	103.902292 
3593.000000	103.914880 
3592.000000	103.929471 
3591.000000	103.935718 
3590.000000	103.927445 
3589.000000	103.912115 
3588.000000	103.907370 
3587.000000	103.921008 
3586.000000	103.940534 
3585.000000	103.948903 
3584.000000	103.944826 
3583.000000	103.938269 
3582.000000	103.934478 
3581.000000	103.932142 
3580.000000	103.930282 
3579.000000	103.928613 
3578.000000	103.925347 
3577.000000	103.918814 
3576.000000	103.909516 
3575.000000	103.899979 
3574.000000	103.893184 
3573.000000	103.891324 
3572.000000	103.894329 
3571.000000	103.899145 
3570.000000	103.898286 
3569.000000	103.883528 
3568.000000	103.857970 
3567.000000	103.839278 
3566.000000	103.841495 
3565.000000	103.856277 
3564.000000	103.863620 
3563.000000	103.856945 
3562.000000	103.846096 
3561.000000	103.839564 
3560.000000	103.836584 
3559.000000	103.833985 
3558.000000	103.831601 
3557.000000	103.829765 
3556.000000	103.827595 
3555.000000	103.823590 
3554.000000	103.817224 
3553.000000	103.809595 
3552.000000	103.803277 
3551.000000	103.799223 
3550.000000	103.794956 
3549.000000	103.787612 
3548.000000	103.778028 
3547.000000	103.770351 
3546.000000	103.766322 
3545.000000	103.764247 
3544.000000	103.762459 
3543.000000	103.760552 
3542.000000	103.757214 
3541.000000	103.750133 
3540.000000	103.739929 
3539.000000	103.729891 
3538.000000	103.722667 
3537.000000	103.718495 
3536.000000	103.716540 
3535.000000	103.715229 
3534.000000	103.711867 
3533.000000	103.704571 
3532.000000	103.693962 
3531.000000	103.681731 
3530.000000	103.669619 
3529.000000	103.660941 
3528.000000	103.659296 
3527.000000	103.663492 
3526.000000	103.666853 
3525.000000	103.663301 
3524.000000	103.653311 
3523.000000	103.642058 
3522.000000	103.633546 
3521.000000	103.627967 
3520.000000	103.623938 
3519.000000	103.620553 
3518.000000	103.617954 
3517.000000	103.615546 
3516.000000	103.612375 
3515.000000	103.609180 
3514.000000	103.606700 
3513.000000	103.602623 
3512.000000	103.594350 
3511.000000	103.583502 
3510.000000	103.573918 
3509.000000	103.565859 
3508.000000	103.557467 
3507.000000	103.549480 
3506.000000	103.544116 
3505.000000	103.541612 
3504.000000	103.540706 
3503.000000	103.541231 
3502.000000	103.542995 
3501.000000	103.543686 
3500.000000	103.540825 
3499.000000	103.535032 
3498.000000	103.529596 
3497.000000	103.527331 
3496.000000	103.528499 
3495.000000	103.530621 
3494.000000	103.530025 
3493.000000	103.525042 
3492.000000	103.517484 
3491.000000	103.510236 
3490.000000	103.504037 
3489.000000	103.497576 
3488.000000	103.490471 
3487.000000	103.483819 
3486.000000	103.477334 
3485.000000	103.469347 
3484.000000	103.459978 
3483.000000	103.452515 
3482.000000	103.450775 
3481.000000	103.454208 
3480.000000	103.457188 
3479.000000	103.453469 
3478.000000	103.442335 
3477.000000	103.429436 
3476.000000	103.421545 
3475.000000	103.420400 
3474.000000	103.422379 
3473.000000	103.423237 
3472.000000	103.422760 
3471.000000	103.423690 
3470.000000	103.427481 
3469.000000	103.431510 
3468.000000	103.431558 
3467.000000	103.426265 
3466.000000	103.417706 
3465.000000	103.408336 
3464.000000	103.399896 
3463.000000	103.394436 
3462.000000	103.393864 
3461.000000	103.396749 
3460.000000	103.398752 
3459.000000	103.397274 
3458.000000	103.393578 
3457.000000	103.389954 
3456.000000	103.387284 
3455.000000	103.384995 
3454.000000	103.382349 
3453.000000	103.379249 
3452.000000	103.376650 
3451.000000	103.375744 
3450.000000	103.376722 
3449.000000	103.378796 
3448.000000	103.381395 
3447.000000	103.384685 
3446.000000	103.387594 
3445.000000	103.388285 
3444.000000	103.386545 
3443.000000	103.384995 
3442.000000	103.385162 
3441.000000	103.386068 
3440.000000	103.386783 
3439.000000	103.388357 
3438.000000	103.391909 
3437.000000	103.396415 
3436.000000	103.399825 
3435.000000	103.401446 
3434.000000	103.402423 
3433.000000	103.403973 
3432.000000	103.406238 
3431.000000	103.408765 
3430.000000	103.411531 
3429.000000	103.414320 
3428.000000	103.415727 
3427.000000	103.414130 
3426.000000	103.410053 
3425.000000	103.406262 
3424.000000	103.405117 
3423.000000	103.405690 
3422.000000	103.405117 
3421.000000	103.402400 
3420.000000	103.400516 
3419.000000	103.402709 
3418.000000	103.408813 
3417.000000	103.415703 
3416.000000	103.420877 
3415.000000	103.424143 
3414.000000	103.426504 
3413.000000	103.428530 
3412.000000	103.430032 
3411.000000	103.431200 
3410.000000	103.432822 
3409.000000	103.435349 
3408.000000	103.438615 
3407.000000	103.442859 
3406.000000	103.448176 
3405.000000	103.453040 
3404.000000	103.456044 
3403.000000	103.457474 
3402.000000	103.458929 
3401.000000	103.461050 
3400.000000	103.464078 
3399.000000	103.468871 
3398.000000	103.476023 
3397.000000	103.483748 
3396.000000	103.489279 
3395.000000	103.491449 
3394.000000	103.491973 
3393.000000	103.493142 
3392.000000	103.495502 
3391.000000	103.497862 
3390.000000	103.499317 
3389.000000	103.500771 
3388.000000	103.503298 
3387.000000	103.506517 
3386.000000	103.509402 
3385.000000	103.512215 
3384.000000	103.516006 
3383.000000	103.521490 
3382.000000	103.527474 
3381.000000	103.532528 
3380.000000	103.536462 
3379.000000	103.540015 
3378.000000	103.542900 
3377.000000	103.543829 
3376.000000	103.542780 
3375.000000	103.541517 
3374.000000	103.542017 
3373.000000	103.544688 
3372.000000	103.548979 
3371.000000	103.554725 
3370.000000	103.562068 
3369.000000	103.570437 
3368.000000	103.577184 
3367.000000	103.579354 
3366.000000	103.575706 
3365.000000	103.568649 
3364.000000	103.562831 
3363.000000	103.561806 
3362.000000	103.565669 
3361.000000	103.571271 
3360.000000	103.575158 
3359.000000	103.576660 
3358.000000	103.577494 
3357.000000	103.578782 
3356.000000	103.579735 
3355.000000	103.579711 
3354.000000	103.580379 
3353.000000	103.584480 
3352.000000	103.592562 
3351.000000	103.600955 
3350.000000	103.605055 
3349.000000	103.604030 
3348.000000	103.601241 
3347.000000	103.600502 
3346.000000	103.602147 
3345.000000	103.603672 
3344.000000	103.602838 
3343.000000	103.600406 
3342.000000	103.598904 
3341.000000	103.600049 
3340.000000	103.603243 
3339.000000	103.606390 
3338.000000	103.607654 
3337.000000	103.606605 
3336.000000	103.604388 
3335.000000	103.602504 
3334.000000	103.601813 
3333.000000	103.602671 
3332.000000	103.604984 
3331.000000	103.608489 
3330.000000	103.611779 
3329.000000	103.613114 
3328.000000	103.611755 
3327.000000	103.608775 
3326.000000	103.606510 
3325.000000	103.606486 
3324.000000	103.608798 
3323.000000	103.612375 
3322.000000	103.615617 
3321.000000	103.617358 
3320.000000	103.617286 
3319.000000	103.615403 
3318.000000	103.611707 
3317.000000	103.607416 
3316.000000	103.604817 
3315.000000	103.604888 
3314.000000	103.605866 
3313.000000	103.606271 
3312.000000	103.606653 
3311.000000	103.607130 
3310.000000	103.606486 
3309.000000	103.605103 
3308.000000	103.605771 
3307.000000	103.608226 
3306.000000	103.608179 
3305.000000	103.603863 
3304.000000	103.599619 
3303.000000	103.600096 
3302.000000	103.604006 
3301.000000	103.606438 
3300.000000	103.604888 
3299.000000	103.601956 
3298.000000	103.601622 
3297.000000	103.604173 
3296.000000	103.606271 
3295.000000	103.605175 
3294.000000	103.601408 
3293.000000	103.597831 
3292.000000	103.597569 
3291.000000	103.602647 
3290.000000	103.611207 
3289.000000	103.617668 
3288.000000	103.617835 
3287.000000	103.613519 
3286.000000	103.609681 
3285.000000	103.608918 
3284.000000	103.610134 
3283.000000	103.611302 
3282.000000	103.611946 
3281.000000	103.613066 
3280.000000	103.615498 
3279.000000	103.618860 
3278.000000	103.621959 
3277.000000	103.623604 
3276.000000	103.623867 
3275.000000	103.623914 
3274.000000	103.625297 
3273.000000	103.628492 
3272.000000	103.632164 
3271.000000	103.634715 
3270.000000	103.636169 
3269.000000	103.637766 
3268.000000	103.639769 
3267.000000	103.640961 
3266.000000	103.640365 
3265.000000	103.638911 
3264.000000	103.638744 
3263.000000	103.640198 
3262.000000	103.641152 
3261.000000	103.640294 
3260.000000	103.639078 
3259.000000	103.638839 
3258.000000	103.638648 
3257.000000	103.637647 
3256.000000	103.637552 
3255.000000	103.640222 
3254.000000	103.644275 
3253.000000	103.647851 
3252.000000	103.651380 
3251.000000	103.656172 
3250.000000	103.662133 
3249.000000	103.667688 
3248.000000	103.671193 
3247.000000	103.671169 
3246.000000	103.668141 
3245.000000	103.665304 
3244.000000	103.665852 
3243.000000	103.670120 
3242.000000	103.675413 
3241.000000	103.679323 
3240.000000	103.682446 
3239.000000	103.686833 
3238.000000	103.692698 
3237.000000	103.697705 
3236.000000	103.699469 
3235.000000	103.698730 
3234.000000	103.697991 
3233.000000	103.698658 
3232.000000	103.699874 
3231.000000	103.700661 
3230.000000	103.700613 
3229.000000	103.700399 
3228.000000	103.701353 
3227.000000	103.704094 
3226.000000	103.707528 
3225.000000	103.709030 
3224.000000	103.707599 
3223.000000	103.705167 
3222.000000	103.704643 
3221.000000	103.707146 
3220.000000	103.711819 
3219.000000	103.716707 
3218.000000	103.719711 
3217.000000	103.720450 
3216.000000	103.721022 
3215.000000	103.723263 
3214.000000	103.726196 
3213.000000	103.727078 
3212.000000	103.725910 
3211.000000	103.724646 
3210.000000	103.723669 
3209.000000	103.721666 
3208.000000	103.718042 
3207.000000	103.714275 
3206.000000	103.712368 
3205.000000	103.712844 
3204.000000	103.714585 
3203.000000	103.715801 
3202.000000	103.714609 
3201.000000	103.711080 
3200.000000	103.707027 
3199.000000	103.705239 
3198.000000	103.707242 
3197.000000	103.712081 
3196.000000	103.716874 
3195.000000	103.719258 
3194.000000	103.718662 
3193.000000	103.716397 
3192.000000	103.713822 
3191.000000	103.711462 
3190.000000	103.708958 
3189.000000	103.705573 
3188.000000	103.701496 
3187.000000	103.697991 
3186.000000	103.696084 
3185.000000	103.695845 
3184.000000	103.696227 
3183.000000	103.696012 
3182.000000	103.694748 
3181.000000	103.692531 
3180.000000	103.689742 
3179.000000	103.686666 
3178.000000	103.683614 
3177.000000	103.680872 
3176.000000	103.678822 
3175.000000	103.677415 
3174.000000	103.676319 
3173.000000	103.675222 
3172.000000	103.673982 
3171.000000	103.672409 
3170.000000	103.669762 
3169.000000	103.665494 
3168.000000	103.660511 
3167.000000	103.656601 
3166.000000	103.654026 
3165.000000	103.651285 
3164.000000	103.647470 
3163.000000	103.643321 
3162.000000	103.639960 
3161.000000	103.637862 
3160.000000	103.637003 
3159.000000	103.636097 
3158.000000	103.632903 
3157.000000	103.626894 
3156.000000	103.620910 
3155.000000	103.618836 
3154.000000	103.621029 
3153.000000	103.624081 
3152.000000	103.624534 
3151.000000	103.621435 
3150.000000	103.616428 
3149.000000	103.612089 
3148.000000	103.609991 
3147.000000	103.609466 
3146.000000	103.608465 
3145.000000	103.605818 
3144.000000	103.602361 
3143.000000	103.600072 
3142.000000	103.599405 
3141.000000	103.598403 
3140.000000	103.594636 
3139.000000	103.587722 
3138.000000	103.580355 
3137.000000	103.575468 
3136.000000	103.574538 
3135.000000	103.577256 
3134.000000	103.581619 
3133.000000	103.584504 
3132.000000	103.583526 
3131.000000	103.579354 
3130.000000	103.574776 
3129.000000	103.571891 
3128.000000	103.570747 
3127.000000	103.570342 
3126.000000	103.569126 
3125.000000	103.565597 
3124.000000	103.559398 
3123.000000	103.552055 
3122.000000	103.545808 
3121.000000	103.542160 
3120.000000	103.541636 
3119.000000	103.543472 
3118.000000	103.545546 
3117.000000	103.545427 
3116.000000	103.542876 
3115.000000	103.539967 
3114.000000	103.537988 
3113.000000	103.536057 
3112.000000	103.532600 
3111.000000	103.527688 
3110.000000	103.522491 
3109.000000	103.517913 
3108.000000	103.514218 
3107.000000	103.511309 
3106.000000	103.508853 
3105.000000	103.506684 
3104.000000	103.504681 
3103.000000	103.502440 
3102.000000	103.499293 
3101.000000	103.495788 
3100.000000	103.493690 
3099.000000	103.494381 
3098.000000	103.496456 
3097.000000	103.497099 
3096.000000	103.494834 
3095.000000	103.490662 
3094.000000	103.486108 
3093.000000	103.481817 
3092.000000	103.477168 
3091.000000	103.471112 
3090.000000	103.463459 
3089.000000	103.454971 
3088.000000	103.446960 
3087.000000	103.440546 
3086.000000	103.435826 
3085.000000	103.431487 
3084.000000	103.426527 
3083.000000	103.421616 
3082.000000	103.418159 
3081.000000	103.416037 
3080.000000	103.413605 
3079.000000	103.410315 
3078.000000	103.407835 
3077.000000	103.407478 
3076.000000	103.407979 
3075.000000	103.406167 
3074.000000	103.399968 
3073.000000	103.390884 
3072.000000	103.382539 
3071.000000	103.376817 
3070.000000	103.372025 
3069.000000	103.365111 
3068.000000	103.355431 
3067.000000	103.345632 
3066.000000	103.338503 
3065.000000	103.334069 
3064.000000	103.329586 
3063.000000	103.323054 
3062.000000	103.314995 
3061.000000	103.307628 
3060.000000	103.302550 
3059.000000	103.299283 
3058.000000	103.296518 
3057.000000	103.293609 
3056.000000	103.291344 
3055.000000	103.290247 
3054.000000	103.289628 
3053.000000	103.288459 
3052.000000	103.287148 
3051.000000	103.286075 
3050.000000	103.283286 
3049.000000	103.276085 
3048.000000	103.264474 
3047.000000	103.251147 
3046.000000	103.238439 
3045.000000	103.226280 
3044.000000	103.213930 
3043.000000	103.201603 
3042.000000	103.190255 
3041.000000	103.180813 
3040.000000	103.171801 
3039.000000	103.160095 
3038.000000	103.142380 
3037.000000	103.118753 
3036.000000	103.092336 
3035.000000	103.066158 
3034.000000	103.039836 
3033.000000	103.010296 
3032.000000	102.975201 
3031.000000	102.936100 
3030.000000	102.896189 
3029.000000	102.857017 
3028.000000	102.817392 
3027.000000	102.776455 
3026.000000	102.735114 
3025.000000	102.695083 
3024.000000	102.656245 
3023.000000	102.617168 
3022.000000	102.574992 
3021.000000	102.527475 
3020.000000	102.473950 
3019.000000	102.416610 
3018.000000	102.357125 
3017.000000	102.296447 
3016.000000	102.235364 
3015.000000	102.177619 
3014.000000	102.127671 
3013.000000	102.089047 
3012.000000	102.062344 
3011.000000	102.047204 
3010.000000	102.043104 
3009.000000	102.050089 
3008.000000	102.067518 
3007.000000	102.094125 
3006.000000	102.127408 
3005.000000	102.164173 
3004.000000	102.201008 
3003.000000	102.235078 
3002.000000	102.264785 
3001.000000	102.290201 
3000.000000	102.312707 
2999.000000	102.333521 
2998.000000	102.352499 
2997.000000	102.368116 
2996.000000	102.378654 
2995.000000	102.383184 
2994.000000	102.381920 
2993.000000	102.376437 
2992.000000	102.368068 
2991.000000	102.358126 
2990.000000	102.345681 
2989.000000	102.329635 
2988.000000	102.308630 
2987.000000	102.282881 
2986.000000	102.252650 
2985.000000	102.218055 
2984.000000	102.178025 
2983.000000	102.132439 
2982.000000	102.082109 
2981.000000	102.027750 
2980.000000	101.968860 
2979.000000	101.904773 
2978.000000	101.836013 
2977.000000	101.763820 
2976.000000	101.689696 
2975.000000	101.614260 
2974.000000	101.537990 
2973.000000	101.461744 
2972.000000	101.387405 
2971.000000	101.317214 
2970.000000	101.252341 
2969.000000	101.191210 
2968.000000	101.131105 
2967.000000	101.070523 
2966.000000	101.010560 
2965.000000	100.954127 
2964.000000	100.903391 
2963.000000	100.858092 
2962.000000	100.816321 
2961.000000	100.776028 
2960.000000	100.735950 
2959.000000	100.694775 
2958.000000	100.650763 
2957.000000	100.601673 
2956.000000	100.545930 
2955.000000	100.482988 
2954.000000	100.413632 
2953.000000	100.339889 
2952.000000	100.266122 
2951.000000	100.196504 
2950.000000	100.132012 
2949.000000	100.068879 
2948.000000	100.001502 
2947.000000	99.926137  
2946.000000	99.842357  
2945.000000	99.750781  
2944.000000	99.651145  
2943.000000	99.541997  
2942.000000	99.422836  
2941.000000	99.294853  
2940.000000	99.161171  
2939.000000	99.025559  
2938.000000	98.892807  
2937.000000	98.765873  
2936.000000	98.647332  
2935.000000	98.540592  
2934.000000	98.452997  
2933.000000	98.389601  
2932.000000	98.351311  
2931.000000	98.334050  
2930.000000	98.335695  
2929.000000	98.353910  
2928.000000	98.388123  
2927.000000	98.437476  
2926.000000	98.502588  
2925.000000	98.581647  
2924.000000	98.671984  
2923.000000	98.770689  
2922.000000	98.876976  
2921.000000	98.988795  
2920.000000	99.103069  
2919.000000	99.217319  
2918.000000	99.331426  
2917.000000	99.446630  
2916.000000	99.563789  
2915.000000	99.682307  
2914.000000	99.800181  
2913.000000	99.914765  
2912.000000	100.023889 
2911.000000	100.126671 
2910.000000	100.223493 
2909.000000	100.315523 
2908.000000	100.404119 
2907.000000	100.489735 
2906.000000	100.572633 
2905.000000	100.652194 
2904.000000	100.728058 
2903.000000	100.799655 
2902.000000	100.867438 
2901.000000	100.932383 
2900.000000	100.996422 
2899.000000	101.060295 
2898.000000	101.123857 
2897.000000	101.185560 
2896.000000	101.244163 
2895.000000	101.298928 
2894.000000	101.350092 
2893.000000	101.397156 
2892.000000	101.439309 
2891.000000	101.476192 
2890.000000	101.509237 
2889.000000	101.540279 
2888.000000	101.568984 
2887.000000	101.593661 
2886.000000	101.612424 
2885.000000	101.625370 
2884.000000	101.632475 
2883.000000	101.633381 
2882.000000	101.626467 
2881.000000	101.612353 
2880.000000	101.592230 
2879.000000	101.568770 
2878.000000	101.542544 
2877.000000	101.515913 
2876.000000	101.491594 
2875.000000	101.472377 
2874.000000	101.456570 
2873.000000	101.440572 
2872.000000	101.420402 
2871.000000	101.394343 
2870.000000	101.361370 
2869.000000	101.320385 
2868.000000	101.269721 
2867.000000	101.208424 
2866.000000	101.136255 
2865.000000	101.052951 
2864.000000	100.958371 
2863.000000	100.854778 
2862.000000	100.747632 
2861.000000	100.644445 
2860.000000	100.550913 
2859.000000	100.470256 
2858.000000	100.404715 
2857.000000	100.359272 
2856.000000	100.340318 
2855.000000	100.353598 
2854.000000	100.399231 
2853.000000	100.473642 
2852.000000	100.571417 
2851.000000	100.689029 
2850.000000	100.822925 
2849.000000	100.969696 
2848.000000	101.124215 
2847.000000	101.282048 
2846.000000	101.437354 
2845.000000	101.585030 
2844.000000	101.721024 
2843.000000	101.844525 
2842.000000	101.955628 
2841.000000	102.055311 
2840.000000	102.145051 
2839.000000	102.226877 
2838.000000	102.300786 
2837.000000	102.366042 
2836.000000	102.422952 
2835.000000	102.474379 
2834.000000	102.522850 
2833.000000	102.568697 
2832.000000	102.609658 
2831.000000	102.644705 
2830.000000	102.674984 
2829.000000	102.703881 
2828.000000	102.732872 
2827.000000	102.761411 
2826.000000	102.787280 
2825.000000	102.810025 
2824.000000	102.830457 
2823.000000	102.850270 
2822.000000	102.870035 
2821.000000	102.890062 
2820.000000	102.910041 
2819.000000	102.929520 
2818.000000	102.947211 
2817.000000	102.962303 
2816.000000	102.974915 
2815.000000	102.986121 
2814.000000	102.997303 
2813.000000	103.009438 
2812.000000	103.022861 
2811.000000	103.037095 
2810.000000	103.050899 
2809.000000	103.063225 
2808.000000	103.073573 
2807.000000	103.082084 
2806.000000	103.089880 
2805.000000	103.098034 
2804.000000	103.106927 
2803.000000	103.115773 
2802.000000	103.123402 
2801.000000	103.129339 
2800.000000	103.134441 
2799.000000	103.140282 
2798.000000	103.147792 
2797.000000	103.156232 
2796.000000	103.163981 
2795.000000	103.169846 
2794.000000	103.174400 
2793.000000	103.178977 
2792.000000	103.184342 
2791.000000	103.189992 
2790.000000	103.195047 
2789.000000	103.199529 
2788.000000	103.204512 
2787.000000	103.210425 
2786.000000	103.216147 
2785.000000	103.220105 
2784.000000	103.222298 
2783.000000	103.224062 
2782.000000	103.226327 
2781.000000	103.229165 
2780.000000	103.232812 
2779.000000	103.237605 
2778.000000	103.242373 
2777.000000	103.245687 
2776.000000	103.247618 
2775.000000	103.249192 
2774.000000	103.250813 
2773.000000	103.252077 
2772.000000	103.253054 
2771.000000	103.254604 
2770.000000	103.257417 
2769.000000	103.261041 
2768.000000	103.264236 
2767.000000	103.265833 
2766.000000	103.265953 
2765.000000	103.265714 
2764.000000	103.266501 
2763.000000	103.268980 
2762.000000	103.272604 
2761.000000	103.276181 
2760.000000	103.278660 
2759.000000	103.280019 
2758.000000	103.281211 
2757.000000	103.283190 
2756.000000	103.285908 
2755.000000	103.288435 
2754.000000	103.289294 
2753.000000	103.288006 
2752.000000	103.285479 
2751.000000	103.283166 
2750.000000	103.281879 
2749.000000	103.281688 
2748.000000	103.282594 
2747.000000	103.284907 
2746.000000	103.289127 
2745.000000	103.294849 
2744.000000	103.300571 
2743.000000	103.304672 
2742.000000	103.306198 
2741.000000	103.305673 
2740.000000	103.304147 
2739.000000	103.302574 
2738.000000	103.301334 
2737.000000	103.300476 
2736.000000	103.300166 
2735.000000	103.300738 
2734.000000	103.301906 
2733.000000	103.303265 
2732.000000	103.304743 
2731.000000	103.306603 
2730.000000	103.308486 
2729.000000	103.309917 
2728.000000	103.311443 
2727.000000	103.313970 
2726.000000	103.316926 
2725.000000	103.318834 
2724.000000	103.319621 
2723.000000	103.320527 
2722.000000	103.322410 
2721.000000	103.324818 
2720.000000	103.326725 
2719.000000	103.326988 
2718.000000	103.324604 
2717.000000	103.320074 
2716.000000	103.316211 
2715.000000	103.315353 
2714.000000	103.317594 
2713.000000	103.321599 
2712.000000	103.326249 
2711.000000	103.330254 
2710.000000	103.332042 
2709.000000	103.331279 
2708.000000	103.329396 
2707.000000	103.327894 
2706.000000	103.326964 
2705.000000	103.326272 
2704.000000	103.326010 
2703.000000	103.326654 
2702.000000	103.328132 
2701.000000	103.329634 
2700.000000	103.330016 
2699.000000	103.328847 
2698.000000	103.327107 
2697.000000	103.326129 
2696.000000	103.326392 
2695.000000	103.327059 
2694.000000	103.326368 
2693.000000	103.323650 
2692.000000	103.320240 
2691.000000	103.318595 
2690.000000	103.319001 
2689.000000	103.318977 
2688.000000	103.316402 
2687.000000	103.311967 
2686.000000	103.307747 
2685.000000	103.304696 
2684.000000	103.303313 
2683.000000	103.304362 
2682.000000	103.307557 
2681.000000	103.310775 
2680.000000	103.312230 
2679.000000	103.311967 
2678.000000	103.310775 
2677.000000	103.309059 
2676.000000	103.306484 
2675.000000	103.303146 
2674.000000	103.298854 
2673.000000	103.293561 
2672.000000	103.287887 
2671.000000	103.282785 
2670.000000	103.278636 
2669.000000	103.275465 
2668.000000	103.273487 
2667.000000	103.272962 
2666.000000	103.272962 
2665.000000	103.272104 
2664.000000	103.270006 
2663.000000	103.267145 
2662.000000	103.264164 
2661.000000	103.262042 
2660.000000	103.261208 
2659.000000	103.261017 
2658.000000	103.259277 
2657.000000	103.255009 
2656.000000	103.249359 
2655.000000	103.244328 
2654.000000	103.240585 
2653.000000	103.237390 
2652.000000	103.234052 
2651.000000	103.230643 
2650.000000	103.227877 
2649.000000	103.226304 
2648.000000	103.225874 
2647.000000	103.226423 
2646.000000	103.227186 
2645.000000	103.226685 
2644.000000	103.223991 
2643.000000	103.219461 
2642.000000	103.214383 
2641.000000	103.209495 
2640.000000	103.205060 
2639.000000	103.201675 
2638.000000	103.199577 
2637.000000	103.197646 
2636.000000	103.194904 
2635.000000	103.191471 
2634.000000	103.187823 
2633.000000	103.183627 
2632.000000	103.178811 
2631.000000	103.174591 
2630.000000	103.172135 
2629.000000	103.171396 
2628.000000	103.171420 
2627.000000	103.171348 
2626.000000	103.170657 
2625.000000	103.168916 
2624.000000	103.166246 
2623.000000	103.163337 
2622.000000	103.160572 
2621.000000	103.158211 
2620.000000	103.156161 
2619.000000	103.154468 
2618.000000	103.152799 
2617.000000	103.151440 
2616.000000	103.151559 
2615.000000	103.153324 
2614.000000	103.154826 
2613.000000	103.154420 
2612.000000	103.153491 
2611.000000	103.154373 
2610.000000	103.157329 
2609.000000	103.159928 
2608.000000	103.160405 
2607.000000	103.159427 
2606.000000	103.158903 
2605.000000	103.159451 
2604.000000	103.160285 
2603.000000	103.161287 
2602.000000	103.163170 
2601.000000	103.166127 
2600.000000	103.168535 
2599.000000	103.169465 
2598.000000	103.169608 
2597.000000	103.170752 
2596.000000	103.173112 
2595.000000	103.175663 
2594.000000	103.177380 
2593.000000	103.178143 
2592.000000	103.178787 
2591.000000	103.180408 
2590.000000	103.183245 
2589.000000	103.186702 
2588.000000	103.190112 
2587.000000	103.193306 
2586.000000	103.196573 
2585.000000	103.199958 
2584.000000	103.203535 
2583.000000	103.207874 
2582.000000	103.213238 
2581.000000	103.218793 
2580.000000	103.223037 
2579.000000	103.225159 
2578.000000	103.225851 
2577.000000	103.226876 
2576.000000	103.230333 
2575.000000	103.236818 
2574.000000	103.244471 
2573.000000	103.250026 
2572.000000	103.252339 
2571.000000	103.253293 
2570.000000	103.255057 
2569.000000	103.257751 
2568.000000	103.260064 
2567.000000	103.261113 
2566.000000	103.261518 
2565.000000	103.262042 
2564.000000	103.263282 
2563.000000	103.265595 
2562.000000	103.269195 
2561.000000	103.273773 
2560.000000	103.278493 
2559.000000	103.281736 
2558.000000	103.282403 
2557.000000	103.281497 
2556.000000	103.281164 
2555.000000	103.282189 
2554.000000	103.282999 
2553.000000	103.282427 
2552.000000	103.282141 
2551.000000	103.284645 
2550.000000	103.289842 
2549.000000	103.294873 
2548.000000	103.297758 
2547.000000	103.299140 
2546.000000	103.301072 
2545.000000	103.304314 
2544.000000	103.307604 
2543.000000	103.308749 
2542.000000	103.307485 
2541.000000	103.305864 
2540.000000	103.305554 
2539.000000	103.306007 
2538.000000	103.305435 
2537.000000	103.303480 
2536.000000	103.302097 
2535.000000	103.303241 
2534.000000	103.306150 
2533.000000	103.308129 
2532.000000	103.307271 
2531.000000	103.304314 
2530.000000	103.301668 
2529.000000	103.300547 
2528.000000	103.300738 
2527.000000	103.301954 
2526.000000	103.303551 
2525.000000	103.304529 
2524.000000	103.304100 
2523.000000	103.302335 
2522.000000	103.299117 
2521.000000	103.294444 
2520.000000	103.289365 
2519.000000	103.286194 
2518.000000	103.285431 
2517.000000	103.285431 
2516.000000	103.284955 
2515.000000	103.284239 
2514.000000	103.283596 
2513.000000	103.281879 
2512.000000	103.278493 
2511.000000	103.273987 
2510.000000	103.269410 
2509.000000	103.265810 
2508.000000	103.264284 
2507.000000	103.265213 
2506.000000	103.267049 
2505.000000	103.267216 
2504.000000	103.264451 
2503.000000	103.259587 
2502.000000	103.254532 
2501.000000	103.250813 
2500.000000	103.248119 
2499.000000	103.244853 
2498.000000	103.239583 
2497.000000	103.233098 
2496.000000	103.227663 
2495.000000	103.224611 
2494.000000	103.222942 
2493.000000	103.221130 
2492.000000	103.219032 
2491.000000	103.217840 
2490.000000	103.218007 
2489.000000	103.218507 
2488.000000	103.217887 
2487.000000	103.216147 
2486.000000	103.214335 
2485.000000	103.212499 
2484.000000	103.209662 
2483.000000	103.206062 
2482.000000	103.202772 
2481.000000	103.200221 
2480.000000	103.197908 
2479.000000	103.196001 
2478.000000	103.194785 
2477.000000	103.193640 
2476.000000	103.191781 
2475.000000	103.189516 
2474.000000	103.187870 
2473.000000	103.186702 
2472.000000	103.185343 
2471.000000	103.183889 
2470.000000	103.182649 
2469.000000	103.181338 
2468.000000	103.179049 
2467.000000	103.175759 
2466.000000	103.172421 
2465.000000	103.170299 
2464.000000	103.170037 
2463.000000	103.171110 
2462.000000	103.172278 
2461.000000	103.172278 
2460.000000	103.170609 
2459.000000	103.167510 
2458.000000	103.163671 
2457.000000	103.159523 
2456.000000	103.155779 
2455.000000	103.153157 
2454.000000	103.151535 
2453.000000	103.150892 
2452.000000	103.151512 
2451.000000	103.153300 
2450.000000	103.155040 
2449.000000	103.155469 
2448.000000	103.154802 
2447.000000	103.153991 
2446.000000	103.153085 
2445.000000	103.151369 
2444.000000	103.148913 
2443.000000	103.146886 
2442.000000	103.146147 
2441.000000	103.145670 
2440.000000	103.143739 
2439.000000	103.139781 
2438.000000	103.135728 
2437.000000	103.134274 
2436.000000	103.135919 
2435.000000	103.138113 
2434.000000	103.138065 
2433.000000	103.135395 
2432.000000	103.132176 
2431.000000	103.130650 
2430.000000	103.130698 
2429.000000	103.130698 
2428.000000	103.129720 
2427.000000	103.128480 
2426.000000	103.127741 
2425.000000	103.126716 
2424.000000	103.124690 
2423.000000	103.123188 
2422.000000	103.123641 
2421.000000	103.124642 
2420.000000	103.123116 
2419.000000	103.117942 
2418.000000	103.110766 
2417.000000	103.103542 
2416.000000	103.097772 
2415.000000	103.094744 
2414.000000	103.094577 
2413.000000	103.095889 
2412.000000	103.096532 
2411.000000	103.094935 
2410.000000	103.090667 
2409.000000	103.085017 
2408.000000	103.080129 
2407.000000	103.077864 
2406.000000	103.077769 
2405.000000	103.077673 
2404.000000	103.075647 
2403.000000	103.071665 
2402.000000	103.066945 
2401.000000	103.063058 
2400.000000	103.060364 
2399.000000	103.058576 
2398.000000	103.056430 
2397.000000	103.053069 
2396.000000	103.047895 
2395.000000	103.042006 
2394.000000	103.036308 
2393.000000	103.032040 
2392.000000	103.028178 
2391.000000	103.023052 
2390.000000	103.013467 
2389.000000	102.998614 
2388.000000	102.977275 
2387.000000	102.948045 
2386.000000	102.905774 
2385.000000	102.847242 
2384.000000	102.770256 
2383.000000	102.676343 
2382.000000	102.567219 
2381.000000	102.446007 
2380.000000	102.315592 
2379.000000	102.178096 
2378.000000	102.031302 
2377.000000	101.870560 
2376.000000	101.692628 
2375.000000	101.499485 
2374.000000	101.295208 
2373.000000	101.080656 
2372.000000	100.852417 
2371.000000	100.611090 
2370.000000	100.365161 
2369.000000	100.129294 
2368.000000	99.911522  
2367.000000	99.711632  
2366.000000	99.523258  
2365.000000	99.349427  
2364.000000	99.202132  
2363.000000	99.095439  
2362.000000	99.029660  
2361.000000	98.994731  
2360.000000	98.985457  
2359.000000	99.013328  
2358.000000	99.098539  
2357.000000	99.249935  
2356.000000	99.452948  
2355.000000	99.685406  
2354.000000	99.939560  
2353.000000	100.220179 
2352.000000	100.515770 
2351.000000	100.787663 
2350.000000	100.987219 
2349.000000	101.073646 
2348.000000	101.020288 
2347.000000	100.833940 
2346.000000	100.571656 
2345.000000	100.317621 
2344.000000	100.132060 
2343.000000	100.032472 
2342.000000	100.008440 
2341.000000	100.034689 
2340.000000	100.075340 
2339.000000	100.106334 
2338.000000	100.130343 
2337.000000	100.164675 
2336.000000	100.213551 
2335.000000	100.265693 
2334.000000	100.308799 
2333.000000	100.339412 
2332.000000	100.363850 
2331.000000	100.393509 
2330.000000	100.440192 
2329.000000	100.503802 
2328.000000	100.576639 
2327.000000	100.650668 
2326.000000	100.724792 
2325.000000	100.798749 
2324.000000	100.872826 
2323.000000	100.952386 
2322.000000	101.044893 
2321.000000	101.151156 
2320.000000	101.264309 
2319.000000	101.377654 
2318.000000	101.487350 
2317.000000	101.587271 
2316.000000	101.668524 
2315.000000	101.726770 
2314.000000	101.766419 
2313.000000	101.797676 
2312.000000	101.832580 
2311.000000	101.878905 
2310.000000	101.937055 
2309.000000	102.000761 
2308.000000	102.065300 
2307.000000	102.130150 
2306.000000	102.195167 
2305.000000	102.255487 
2304.000000	102.305626 
2303.000000	102.344512 
2302.000000	102.376389 
2301.000000	102.405619 
2300.000000	102.434229 
2299.000000	102.462482 
2298.000000	102.490782 
2297.000000	102.519702 
2296.000000	102.548408 
2295.000000	102.575349 
2294.000000	102.600598 
2293.000000	102.625894 
2292.000000	102.652001 
2291.000000	102.677869 
2290.000000	102.702236 
2289.000000	102.725529 
2288.000000	102.748799 
2287.000000	102.772831 
2286.000000	102.797126 
2285.000000	102.819037 
2284.000000	102.834343 
2283.000000	102.840065 
2282.000000	102.836799 
2281.000000	102.828741 
2280.000000	102.820396 
2279.000000	102.813839 
2278.000000	102.808523 
2277.000000	102.803778 
2276.000000	102.800464 
2275.000000	102.799892 
2274.000000	102.801942 
2273.000000	102.804756 
2272.000000	102.806186 
2271.000000	102.805113 
2270.000000	102.802181 
2269.000000	102.799415 
2268.000000	102.798891 
2267.000000	102.801656 
2266.000000	102.807545 
2265.000000	102.815771 
2264.000000	102.824997 
2263.000000	102.833795 
2262.000000	102.840399 
2261.000000	102.843737 
2260.000000	102.844762 
2259.000000	102.846455 
2258.000000	102.850270 
2257.000000	102.854752 
2256.000000	102.858352 
2255.000000	102.862644 
2254.000000	102.869582 
2253.000000	102.877545 
2252.000000	102.882981 
2251.000000	102.884578 
2250.000000	102.884674 
2249.000000	102.885818 
2248.000000	102.888298 
2247.000000	102.890467 
2246.000000	102.891135 
2245.000000	102.891492 
2244.000000	102.893090 
2243.000000	102.896380 
2242.000000	102.900195 
2241.000000	102.903127 
2240.000000	102.904844 
2239.000000	102.905273 
2238.000000	102.903985 
2237.000000	102.901554 
2236.000000	102.899980 
2235.000000	102.900934 
2234.000000	102.903556 
2233.000000	102.905321 
2232.000000	102.905201 
2231.000000	102.904319 
2230.000000	102.903914 
2229.000000	102.903723 
2228.000000	102.902889 
2227.000000	102.901530 
2226.000000	102.900838 
2225.000000	102.902102 
2224.000000	102.904534 
2223.000000	102.905702 
2222.000000	102.903628 
2221.000000	102.898311 
2220.000000	102.891993 
2219.000000	102.887368 
2218.000000	102.885866 
2217.000000	102.887177 
2216.000000	102.889657 
2215.000000	102.891063 
2214.000000	102.890110 
2213.000000	102.887606 
2212.000000	102.885389 
2211.000000	102.884554 
2210.000000	102.884340 
2209.000000	102.883243 
2208.000000	102.880382 
2207.000000	102.876210 
2206.000000	102.871727 
2205.000000	102.867794 
2204.000000	102.864623 
2203.000000	102.862477 
2202.000000	102.860760 
2201.000000	102.858114 
2200.000000	102.854037 
2199.000000	102.849411 
2198.000000	102.845025 
2197.000000	102.840781 
2196.000000	102.836799 
2195.000000	102.834296 
2194.000000	102.833342 
2193.000000	102.832198 
2192.000000	102.829122 
2191.000000	102.824783 
2190.000000	102.820992 
2189.000000	102.818608 
2188.000000	102.816891 
2187.000000	102.814745 
2186.000000	102.811789 
2185.000000	102.808213 
2184.000000	102.803587 
2183.000000	102.797412 
2182.000000	102.790427 
2181.000000	102.784514 
2180.000000	102.780818 
2179.000000	102.778840 
2178.000000	102.777099 
2177.000000	102.774477 
2176.000000	102.770662 
2175.000000	102.766489 
2174.000000	102.763295 
2173.000000	102.760910 
2172.000000	102.758240 
2171.000000	102.754878 
2170.000000	102.752113 
2169.000000	102.750420 
2168.000000	102.748608 
2167.000000	102.745175 
2166.000000	102.740454 
2165.000000	102.735733 
2164.000000	102.731490 
2163.000000	102.727198 
2162.000000	102.722144 
2161.000000	102.715969 
2160.000000	102.709698 
2159.000000	102.705574 
2158.000000	102.705025 
2157.000000	102.706551 
2156.000000	102.707147 
2155.000000	102.705502 
2154.000000	102.702569 
2153.000000	102.699375 
2152.000000	102.696228 
2151.000000	102.693676 
2150.000000	102.692294 
2149.000000	102.691602 
2148.000000	102.690792 
2147.000000	102.689599 
2146.000000	102.687549 
2145.000000	102.683639 
2144.000000	102.678227 
2143.000000	102.673339 
2142.000000	102.669811 
2141.000000	102.666306 
2140.000000	102.663064 
2139.000000	102.663111 
2138.000000	102.667164 
2137.000000	102.671456 
2136.000000	102.672362 
2135.000000	102.669477 
2134.000000	102.664399 
2133.000000	102.658224 
2132.000000	102.652072 
2131.000000	102.648138 
2130.000000	102.648305 
2129.000000	102.651548 
2128.000000	102.654147 
2127.000000	102.653789 
2126.000000	102.652335 
2125.000000	102.652430 
2124.000000	102.653360 
2123.000000	102.652359 
2122.000000	102.649402 
2121.000000	102.646565 
2120.000000	102.643942 
2119.000000	102.640676 
2118.000000	102.637600 
2117.000000	102.636456 
2116.000000	102.637457 
2115.000000	102.639627 
2114.000000	102.641916 
2113.000000	102.643227 
2112.000000	102.642011 
2111.000000	102.638030 
2110.000000	102.633094 
2109.000000	102.629899 
2108.000000	102.629685 
2107.000000	102.631354 
2106.000000	102.632665 
2105.000000	102.632522 
2104.000000	102.632141 
2103.000000	102.633285 
2102.000000	102.636218 
2101.000000	102.638697 
2100.000000	102.638530 
2099.000000	102.635550 
2098.000000	102.631497 
2097.000000	102.627587 
2096.000000	102.624154 
2095.000000	102.621412 
2094.000000	102.619791 
2093.000000	102.618980 
2092.000000	102.619028 
2091.000000	102.620363 
2090.000000	102.621650 
2089.000000	102.619862 
2088.000000	102.614092 
2087.000000	102.607655 
2086.000000	102.604866 
2085.000000	102.606511 
2084.000000	102.609920 
2083.000000	102.611899 
2082.000000	102.611279 
2081.000000	102.608489 
2080.000000	102.604436 
2079.000000	102.600145 
2078.000000	102.596926 
2077.000000	102.595639 
2076.000000	102.595806 
2075.000000	102.596259 
2074.000000	102.596497 
2073.000000	102.596569 
2072.000000	102.595877 
2071.000000	102.593493 
2070.000000	102.589225 
2069.000000	102.584075 
2068.000000	102.579188 
2067.000000	102.575349 
2066.000000	102.573084 
2065.000000	102.572607 
2064.000000	102.573204 
2063.000000	102.573680 
2062.000000	102.572917 
2061.000000	102.570867 
2060.000000	102.568435 
2059.000000	102.566313 
2058.000000	102.564334 
2057.000000	102.561950 
2056.000000	102.558970 
2055.000000	102.555060 
2054.000000	102.550053 
2053.000000	102.544593 
2052.000000	102.540493 
2051.000000	102.539086 
2050.000000	102.539730 
2049.000000	102.539825 
2048.000000	102.537441 
2047.000000	102.533459 
2046.000000	102.529668 
2045.000000	102.526021 
2044.000000	102.521800 
2043.000000	102.517986 
2042.000000	102.516984 
2041.000000	102.519583 
2040.000000	102.523660 
2039.000000	102.526664 
2038.000000	102.527284 
2037.000000	102.525782 
2036.000000	102.522921 
2035.000000	102.519488 
2034.000000	102.515363 
2033.000000	102.510595 
2032.000000	102.506303 
2031.000000	102.503752 
2030.000000	102.502727 
2029.000000	102.502226 
2028.000000	102.502489 
2027.000000	102.504849 
2026.000000	102.509069 
2025.000000	102.512741 
2024.000000	102.513718 
2023.000000	102.512502 
2022.000000	102.510833 
2021.000000	102.509760 
2020.000000	102.508807 
2019.000000	102.507281 
2018.000000	102.505111 
2017.000000	102.502727 
2016.000000	102.499890 
2015.000000	102.496457 
2014.000000	102.493619 
2013.000000	102.492809 
2012.000000	102.493810 
2011.000000	102.494788 
2010.000000	102.494287 
2009.000000	102.493309 
2008.000000	102.493643 
2007.000000	102.495622 
2006.000000	102.497625 
2005.000000	102.497649 
2004.000000	102.495861 
2003.000000	102.494072 
2002.000000	102.493500 
2001.000000	102.493739 
2000.000000	102.493977 
1999.000000	102.494645 
1998.000000	102.496576 
1997.000000	102.499151 
1996.000000	102.500391 
1995.000000	102.499318 
1994.000000	102.496886 
1993.000000	102.494382 
1992.000000	102.492499 
1991.000000	102.492094 
1990.000000	102.493476 
1989.000000	102.495551 
1988.000000	102.496647 
1987.000000	102.496576 
1986.000000	102.496218 
1985.000000	102.496623 
1984.000000	102.498745 
1983.000000	102.503037 
1982.000000	102.507925 
1981.000000	102.510404 
1980.000000	102.509856 
1979.000000	102.509212 
1978.000000	102.510666 
1977.000000	102.512669 
1976.000000	102.513051 
1975.000000	102.512145 
1974.000000	102.511572 
1973.000000	102.511405 
1972.000000	102.511119 
1971.000000	102.510643 
1970.000000	102.510023 
1969.000000	102.508568 
1968.000000	102.505636 
1967.000000	102.501845 
1966.000000	102.499294 
1965.000000	102.499818 
1964.000000	102.502870 
1963.000000	102.506208 
1962.000000	102.508091 
1961.000000	102.508759 
1960.000000	102.509450 
1959.000000	102.510857 
1958.000000	102.512288 
1957.000000	102.512216 
1956.000000	102.509665 
1955.000000	102.505922 
1954.000000	102.503609 
1953.000000	102.503657 
1952.000000	102.504158 
1951.000000	102.503585 
1950.000000	102.502560 
1949.000000	102.501869 
1948.000000	102.500844 
1947.000000	102.499008 
1946.000000	102.497100 
1945.000000	102.495837 
1944.000000	102.494788 
1943.000000	102.493882 
1942.000000	102.493834 
1941.000000	102.494668 
1940.000000	102.495551 
1939.000000	102.496194 
1938.000000	102.497410 
1937.000000	102.499604 
1936.000000	102.501726 
1935.000000	102.502155 
1934.000000	102.499532 
1933.000000	102.493762 
1932.000000	102.487707 
1931.000000	102.485871 
1930.000000	102.488851 
1929.000000	102.492046 
1928.000000	102.491474 
1927.000000	102.488303 
1926.000000	102.485203 
1925.000000	102.481913 
1924.000000	102.477741 
1923.000000	102.474951 
1922.000000	102.475833 
1921.000000	102.479124 
1920.000000	102.481245 
1919.000000	102.480816 
1918.000000	102.479457 
1917.000000	102.479052 
1916.000000	102.478981 
1915.000000	102.477478 
1914.000000	102.474284 
1913.000000	102.471184 
1912.000000	102.469110 
1911.000000	102.467083 
1910.000000	102.464818 
1909.000000	102.463006 
1908.000000	102.461814 
1907.000000	102.460169 
1906.000000	102.457284 
1905.000000	102.453470 
1904.000000	102.449226 
1903.000000	102.445363 
1902.000000	102.443170 
1901.000000	102.442169 
1900.000000	102.440190 
1899.000000	102.436208 
1898.000000	102.431607 
1897.000000	102.427482 
1896.000000	102.423071 
1895.000000	102.418470 
1894.000000	102.415347 
1893.000000	102.413415 
1892.000000	102.409934 
1891.000000	102.405309 
1890.000000	102.403259 
1889.000000	102.405023 
1888.000000	102.406835 
1887.000000	102.405405 
1886.000000	102.401208 
1885.000000	102.396392 
1884.000000	102.392196 
1883.000000	102.389049 
1882.000000	102.387118 
1881.000000	102.385902 
1880.000000	102.384948 
1879.000000	102.384424 
1878.000000	102.383995 
1877.000000	102.382349 
1876.000000	102.378797 
1875.000000	102.374505 
1874.000000	102.371621 
1873.000000	102.370738 
1872.000000	102.370333 
1871.000000	102.368426 
1870.000000	102.364969 
1869.000000	102.361607 
1868.000000	102.359104 
1867.000000	102.356362 
1866.000000	102.352142 
1865.000000	102.346539 
1864.000000	102.341341 
1863.000000	102.338171 
1862.000000	102.337551 
1861.000000	102.338624 
1860.000000	102.339243 
1859.000000	102.337098 
1858.000000	102.331924 
1857.000000	102.325391 
1856.000000	102.319765 
1855.000000	102.316427 
1854.000000	102.315258 
1853.000000	102.314567 
1852.000000	102.312016 
1851.000000	102.307510 
1850.000000	102.303791 
1849.000000	102.302813 
1848.000000	102.303051 
1847.000000	102.301526 
1846.000000	102.297973 
1845.000000	102.294397 
1844.000000	102.292442 
1843.000000	102.292060 
1842.000000	102.292156 
1841.000000	102.291226 
1840.000000	102.288556 
1839.000000	102.286171 
1838.000000	102.286410 
1837.000000	102.287340 
1836.000000	102.285385 
1835.000000	102.281689 
1834.000000	102.280259 
1833.000000	102.279400 
1832.000000	102.274584 
1831.000000	102.268123 
1830.000000	102.266812 
1829.000000	102.270483 
1828.000000	102.271413 
1827.000000	102.266120 
1826.000000	102.259159 
1825.000000	102.255535 
1824.000000	102.255129 
1823.000000	102.255105 
1822.000000	102.253675 
1821.000000	102.251362 
1820.000000	102.249526 
1819.000000	102.249026 
1818.000000	102.249050 
1817.000000	102.248239 
1816.000000	102.246117 
1815.000000	102.243471 
1814.000000	102.241492 
1813.000000	102.240896 
1812.000000	102.240896 
1811.000000	102.239966 
1810.000000	102.237796 
1809.000000	102.235293 
1808.000000	102.232766 
1807.000000	102.229619 
1806.000000	102.226114 
1805.000000	102.222585 
1804.000000	102.217912 
1803.000000	102.211833 
1802.000000	102.207756 
1801.000000	102.208280 
1800.000000	102.209377 
1799.000000	102.205801 
1798.000000	102.199244 
1797.000000	102.194595 
1796.000000	102.191066 
1795.000000	102.184605 
1794.000000	102.175641 
1793.000000	102.167558 
1792.000000	102.160716 
1791.000000	102.154397 
1790.000000	102.150082 
1789.000000	102.147054 
1788.000000	102.140355 
1787.000000	102.128982 
1786.000000	102.117872 
1785.000000	102.109503 
1784.000000	102.100443 
1783.000000	102.089738 
1782.000000	102.081418 
1781.000000	102.075958 
1780.000000	102.068185 
1779.000000	102.056288 
1778.000000	102.043700 
1777.000000	102.030992 
1776.000000	102.015185 
1775.000000	101.996874 
1774.000000	101.978707 
1773.000000	101.958560 
1772.000000	101.934671 
1771.000000	101.911544 
1770.000000	101.893782 
1769.000000	101.875042 
1768.000000	101.847815 
1767.000000	101.814174 
1766.000000	101.783108 
1765.000000	101.752424 
1764.000000	101.713800 
1763.000000	101.659727 
1762.000000	101.593708 
1761.000000	101.520967 
1760.000000	101.448798 
1759.000000	101.373505 
1758.000000	101.280355 
1757.000000	101.154637 
1756.000000	101.008462 
1755.000000	100.864338 
1754.000000	100.719404 
1753.000000	100.538539 
1752.000000	100.292301 
1751.000000	99.973344  
1750.000000	99.583458  
1749.000000	99.134254  
1748.000000	98.665237  
1747.000000	98.215436  
1746.000000	97.782945  
1745.000000	97.347974  
1744.000000	96.926236  
1743.000000	96.552157  
1742.000000	96.241879  
1741.000000	96.009063  
1740.000000	95.884561  
1739.000000	95.862817  
1738.000000	95.885205  
1737.000000	95.919823  
1736.000000	96.029210  
1735.000000	96.294808  
1734.000000	96.702718  
1733.000000	97.130417  
1732.000000	97.465586  
1731.000000	97.699832  
1730.000000	97.907757  
1729.000000	98.130464  
1728.000000	98.336720  
1727.000000	98.487830  
1726.000000	98.598408  
1725.000000	98.701000  
1724.000000	98.802971  
1723.000000	98.893833  
1722.000000	98.966598  
1721.000000	99.018597  
1720.000000	99.061369  
1719.000000	99.127244  
1718.000000	99.242281  
1717.000000	99.390244  
1716.000000	99.535369  
1715.000000	99.661111  
1714.000000	99.773430  
1713.000000	99.877190  
1712.000000	99.976086  
1711.000000	100.077295 
1710.000000	100.181698 
1709.000000	100.278329 
1708.000000	100.365686 
1707.000000	100.461053 
1706.000000	100.576186 
1705.000000	100.692057 
1704.000000	100.775218 
1703.000000	100.817465 
1702.000000	100.849914 
1701.000000	100.908541 
1700.000000	100.991058 
1699.000000	101.061749 
1698.000000	101.099324 
1697.000000	101.120686 
1696.000000	101.153039 
1695.000000	101.199030 
1694.000000	101.238250 
1693.000000	101.257157 
1692.000000	101.265645 
1691.000000	101.283335 
1690.000000	101.314282 
1689.000000	101.345801 
1688.000000	101.366400 
1687.000000	101.377058 
1686.000000	101.386046 
1685.000000	101.407122 
1684.000000	101.450681 
1683.000000	101.506185 
1682.000000	101.544475 
1681.000000	101.554322 
1680.000000	101.555013 
1679.000000	101.562500 
1678.000000	101.567578 
1677.000000	101.563549 
1676.000000	101.564025 
1675.000000	101.578426 
1674.000000	101.593661 
1673.000000	101.595902 
1672.000000	101.591253 
1671.000000	101.594257 
1670.000000	101.608657 
1669.000000	101.627087 
1668.000000	101.640653 
1667.000000	101.645517 
1666.000000	101.643109 
1665.000000	101.636624 
1664.000000	101.630854 
1663.000000	101.631855 
1662.000000	101.640510 
1661.000000	101.648139 
1660.000000	101.648139 
1659.000000	101.644682 
1658.000000	101.641511 
1657.000000	101.632142 
1656.000000	101.615738 
1655.000000	101.607608 
1654.000000	101.619553 
1653.000000	101.640582 
1652.000000	101.652073 
1651.000000	101.648378 
1650.000000	101.633596 
1649.000000	101.613473 
1648.000000	101.598477 
1647.000000	101.599073 
1646.000000	101.609230 
1645.000000	101.610970 
1644.000000	101.599121 
1643.000000	101.585316 
1642.000000	101.577568 
1641.000000	101.571965 
1640.000000	101.565909 
1639.000000	101.562547 
1638.000000	101.562190 
1637.000000	101.561474 
1636.000000	101.561117 
1635.000000	101.563000 
1634.000000	101.562428 
1633.000000	101.554560 
1632.000000	101.544094 
1631.000000	101.537370 
1630.000000	101.533079 
1629.000000	101.528882 
1628.000000	101.528501 
1627.000000	101.532411 
1626.000000	101.533532 
1625.000000	101.529741 
1624.000000	101.530003 
1623.000000	101.539301 
1622.000000	101.548647 
1621.000000	101.548314 
1620.000000	101.540756 
1619.000000	101.534986 
1618.000000	101.535344 
1617.000000	101.540541 
1616.000000	101.546549 
1615.000000	101.548528 
1614.000000	101.543855 
1613.000000	101.535177 
1612.000000	101.527428 
1611.000000	101.523137 
1610.000000	101.520729 
1609.000000	101.517939 
1608.000000	101.513361 
1607.000000	101.506423 
1606.000000	101.496815 
1605.000000	101.485276 
1604.000000	101.474928 
1603.000000	101.469683 
1602.000000	101.469111 
1601.000000	101.468157 
1600.000000	101.464271 
1599.000000	101.460814 
1598.000000	101.460480 
1597.000000	101.460766 
1596.000000	101.459622 
1595.000000	101.459002 
1594.000000	101.458954 
1593.000000	101.456427 
1592.000000	101.452159 
1591.000000	101.451253 
1590.000000	101.453661 
1589.000000	101.453542 
1588.000000	101.449751 
1587.000000	101.446318 
1586.000000	101.443457 
1585.000000	101.437640 
1584.000000	101.431035 
1583.000000	101.429343 
1582.000000	101.431965 
1581.000000	101.433253 
1580.000000	101.431417 
1579.000000	101.427364 
1578.000000	101.420378 
1577.000000	101.412963 
1576.000000	101.413702 
1575.000000	101.425504 
1574.000000	101.437592 
1573.000000	101.438069 
1572.000000	101.429057 
1571.000000	101.421308 
1570.000000	101.421070 
1569.000000	101.426720 
1568.000000	101.433491 
1567.000000	101.436877 
1566.000000	101.435375 
1565.000000	101.431322 
1564.000000	101.427221 
1563.000000	101.421046 
1562.000000	101.407504 
1561.000000	101.385498 
1560.000000	101.365494 
1559.000000	101.364517 
1558.000000	101.386404 
1557.000000	101.412177 
1556.000000	101.421856 
1555.000000	101.419258 
1554.000000	101.420950 
1553.000000	101.428389 
1552.000000	101.430416 
1551.000000	101.424908 
1550.000000	101.419091 
1549.000000	101.414084 
1548.000000	101.405167 
1547.000000	101.394009 
1546.000000	101.386380 
1545.000000	101.382517 
1544.000000	101.377701 
1543.000000	101.367640 
1542.000000	101.349711 
1541.000000	101.327395 
1540.000000	101.315307 
1539.000000	101.325821 
1538.000000	101.349329 
1537.000000	101.362419 
1536.000000	101.358795 
1535.000000	101.353716 
1534.000000	101.357722 
1533.000000	101.364421 
1532.000000	101.366186 
1531.000000	101.363754 
1530.000000	101.358270 
1529.000000	101.348733 
1528.000000	101.339077 
1527.000000	101.335597 
1526.000000	101.336550 
1525.000000	101.333069 
1524.000000	101.320433 
1523.000000	101.303768 
1522.000000	101.292705 
1521.000000	101.293540 
1520.000000	101.303577 
1519.000000	101.311898 
1518.000000	101.308703 
1517.000000	101.296758 
1516.000000	101.287937 
1515.000000	101.287531 
1514.000000	101.289820 
1513.000000	101.290607 
1512.000000	101.291775 
1511.000000	101.291847 
1510.000000	101.283740 
1509.000000	101.267814 
1508.000000	101.254582 
1507.000000	101.251029 
1506.000000	101.252293 
1505.000000	101.250052 
1504.000000	101.242542 
1503.000000	101.234054 
1502.000000	101.227498 
1501.000000	101.220130 
1500.000000	101.208376 
1499.000000	101.192116 
1498.000000	101.169180 
1497.000000	101.132822 
1496.000000	101.085329 
1495.000000	101.044178 
1494.000000	101.022100 
1493.000000	101.012206 
1492.000000	101.006102 
1491.000000	101.010203 
1490.000000	101.029229 
1489.000000	101.050281 
1488.000000	101.061201 
1487.000000	101.064991 
1486.000000	101.066350 
1485.000000	101.058745 
1484.000000	101.040577 
1483.000000	101.021003 
1482.000000	101.003813 
1481.000000	100.983738 
1480.000000	100.963211 
1479.000000	100.947308 
1478.000000	100.925040 
1477.000000	100.884628 
1476.000000	100.838184 
1475.000000	100.794625 
1474.000000	100.723838 
1473.000000	100.594711 
1472.000000	100.431823 
1471.000000	100.285696 
1470.000000	100.164699 
1469.000000	100.044488 
1468.000000	99.920439  
1467.000000	99.804544  
1466.000000	99.695467  
1465.000000	99.593257  
1464.000000	99.518799  
1463.000000	99.484419  
1462.000000	99.470734  
1461.000000	99.454808  
1460.000000	99.436473  
1459.000000	99.420166  
1458.000000	99.401259  
1457.000000	99.384093  
1456.000000	99.384784  
1455.000000	99.405741  
1454.000000	99.431276  
1453.000000	99.452829  
1452.000000	99.476218  
1451.000000	99.500775  
1450.000000	99.514055  
1449.000000	99.510693  
1448.000000	99.496769  
1447.000000	99.475407  
1446.000000	99.442672  
1445.000000	99.397969  
1444.000000	99.342322  
1443.000000	99.274539  
1442.000000	99.195837  
1441.000000	99.116253  
1440.000000	99.043965  
1439.000000	98.980569  
1438.000000	98.932862  
1437.000000	98.919129  
1436.000000	98.953247  
1435.000000	99.028587  
1434.000000	99.128270  
1433.000000	99.243378  
1432.000000	99.375414  
1431.000000	99.523019  
1430.000000	99.672174  
1429.000000	99.801850  
1428.000000	99.898195  
1427.000000	99.963307  
1426.000000	100.009584 
1425.000000	100.046753 
1424.000000	100.075531 
1423.000000	100.092148 
1422.000000	100.095224 
1421.000000	100.090694 
1420.000000	100.088524 
1419.000000	100.095391 
1418.000000	100.109601 
1417.000000	100.126910 
1416.000000	100.145649 
1415.000000	100.167608 
1414.000000	100.192856 
1413.000000	100.220394 
1412.000000	100.248861 
1411.000000	100.277066 
1410.000000	100.301980 
1409.000000	100.321221 
1408.000000	100.334191 
1407.000000	100.341558 
1406.000000	100.343751 
1405.000000	100.341963 
1404.000000	100.338435 
1403.000000	100.334644 
1402.000000	100.330924 
1401.000000	100.327467 
1400.000000	100.325298 
1399.000000	100.325512 
1398.000000	100.328445 
1397.000000	100.334525 
1396.000000	100.344133 
1395.000000	100.356149 
1394.000000	100.369286 
1393.000000	100.382852 
1392.000000	100.396418 
1391.000000	100.408911 
1390.000000	100.420331 
1389.000000	100.432038 
1388.000000	100.442123 
1387.000000	100.441765 
1386.000000	100.420331 
1385.000000	100.373387 
1384.000000	100.305008 
1383.000000	100.223636 
1382.000000	100.139737 
1381.000000	100.062417 
1380.000000	99.996018  
1379.000000	99.940133  
1378.000000	99.895310  
1377.000000	99.861478  
1376.000000	99.833178  
1375.000000	99.801373  
1374.000000	99.764180  
1373.000000	99.728751  
1372.000000	99.701023  
1371.000000	99.678421  
1370.000000	99.654769  
1369.000000	99.628782  
1368.000000	99.605035  
1367.000000	99.587726  
1366.000000	99.576282  
1365.000000	99.567794  
1364.000000	99.562311  
1363.000000	99.562168  
1362.000000	99.567556  
1361.000000	99.575495  
1360.000000	99.584031  
1359.000000	99.593806  
1358.000000	99.606633  
1357.000000	99.623274  
1356.000000	99.643707  
1355.000000	99.666118  
1354.000000	99.688601  
1353.000000	99.710130  
1352.000000	99.731063  
1351.000000	99.751520  
1350.000000	99.771189  
1349.000000	99.790406  
1348.000000	99.811315  
1347.000000	99.836421  
1346.000000	99.866271  
1345.000000	99.898648  
1344.000000	99.929261  
1343.000000	99.954748  
1342.000000	99.975562  
1341.000000	99.995541  
1340.000000	100.017070 
1339.000000	100.037002 
1338.000000	100.050139 
1337.000000	100.055694 
1336.000000	100.057768 
1335.000000	100.060272 
1334.000000	100.063538 
1333.000000	100.065779 
1332.000000	100.065946 
1331.000000	100.064444 
1330.000000	100.061750 
1329.000000	100.057673 
1328.000000	100.052881 
1327.000000	100.048923 
1326.000000	100.047278 
1325.000000	100.047826 
1324.000000	100.050711 
1323.000000	100.056695 
1322.000000	100.065803 
1321.000000	100.075912 
1320.000000	100.084853 
1319.000000	100.092220 
1318.000000	100.099706 
1317.000000	100.109410 
1316.000000	100.122642 
1315.000000	100.138545 
1314.000000	100.154185 
1313.000000	100.166940 
1312.000000	100.177073 
1311.000000	100.186467 
1310.000000	100.196146 
1309.000000	100.205826 
1308.000000	100.215387 
1307.000000	100.224661 
1306.000000	100.232410 
1305.000000	100.238633 
1304.000000	100.245857 
1303.000000	100.257086 
1302.000000	100.272130 
1301.000000	100.288462 
1300.000000	100.303769 
1299.000000	100.317382 
1298.000000	100.329041 
1297.000000	100.339388 
1296.000000	100.349259 
1295.000000	100.359630 
1294.000000	100.370931 
1293.000000	100.382423 
1292.000000	100.392246 
1291.000000	100.397896 
1290.000000	100.397396 
1289.000000	100.390481 
1288.000000	100.378656 
1287.000000	100.363874 
1286.000000	100.347924 
1285.000000	100.332450 
1284.000000	100.318670 
1283.000000	100.306820 
1282.000000	100.297069 
1281.000000	100.289797 
1280.000000	100.285243 
1279.000000	100.282335 
1278.000000	100.279355 
1277.000000	100.275158 
1276.000000	100.269937 
1275.000000	100.264358 
1274.000000	100.258612 
1273.000000	100.252079 
1272.000000	100.243926 
1271.000000	100.234317 
1270.000000	100.224113 
1269.000000	100.214362 
1268.000000	100.204968 
1267.000000	100.194787 
1266.000000	100.182652 
1265.000000	100.169444 
1264.000000	100.158309 
1263.000000	100.151705 
1262.000000	100.147986 
1261.000000	100.142979 
1260.000000	100.134301 
1259.000000	100.122475 
1258.000000	100.108695 
1257.000000	100.093460 
1256.000000	100.077986 
1255.000000	100.063395 
1254.000000	100.049686 
1253.000000	100.036668 
1252.000000	100.025653 
1251.000000	100.017476 
1250.000000	100.011777 
1249.000000	100.007820 
1248.000000	100.007748 
1247.000000	100.013589 
1246.000000	100.025320 
1245.000000	100.041580 
1244.000000	100.061845 
1243.000000	100.085687 
1242.000000	100.112128 
1241.000000	100.140309 
1240.000000	100.169849 
1239.000000	100.198984 
1238.000000	100.225615 
1237.000000	100.249695 
1236.000000	100.273180 
1235.000000	100.296998 
1234.000000	100.319576 
1233.000000	100.338792 
1232.000000	100.354194 
1231.000000	100.366806 
1230.000000	100.377058 
1229.000000	100.383663 
1228.000000	100.385046 
1227.000000	100.380849 
1226.000000	100.372910 
1225.000000	100.363039 
1224.000000	100.352072 
1223.000000	100.338959 
1222.000000	100.323820 
1221.000000	100.307774 
1220.000000	100.291490 
1219.000000	100.273442 
1218.000000	100.252580 
1217.000000	100.229620 
1216.000000	100.206017 
1215.000000	100.181198 
1214.000000	100.154185 
1213.000000	100.124311 
1212.000000	100.091457 
1211.000000	100.055861 
1210.000000	100.018334 
1209.000000	99.980473  
1208.000000	99.943304  
1207.000000	99.906754  
1206.000000	99.869704  
1205.000000	99.832463  
1204.000000	99.797439  
1203.000000	99.767041  
1202.000000	99.741864  
1201.000000	99.722385  
1200.000000	99.711489  
1199.000000	99.710917  
1198.000000	99.718666  
1197.000000	99.734020  
1196.000000	99.761199  
1195.000000	99.803566  
1194.000000	99.857211  
1193.000000	99.916362  
1192.000000	99.978947  
1191.000000	100.043535 
1190.000000	100.104641 
1189.000000	100.157403 
1188.000000	100.201058 
1187.000000	100.234150 
1186.000000	100.251913 
1185.000000	100.250196 
1184.000000	100.229120 
1183.000000	100.191378 
1182.000000	100.139975 
1181.000000	100.079464 
1180.000000	100.015234 
1179.000000	99.950599  
1178.000000	99.887657  
1177.000000	99.829506  
1176.000000	99.781227  
1175.000000	99.747347  
1174.000000	99.729490  
1173.000000	99.726462  
1172.000000	99.736475  
1171.000000	99.758982  
1170.000000	99.793386  
1169.000000	99.838924  
1168.000000	99.894428  
1167.000000	99.959969  
1166.000000	100.032782 
1165.000000	100.107789 
1164.000000	100.179409 
1163.000000	100.246787 
1162.000000	100.311017 
1161.000000	100.373435 
1160.000000	100.433969 
1159.000000	100.492429 
1158.000000	100.548458 
1157.000000	100.602173 
1156.000000	100.654506 
1155.000000	100.706815 
1154.000000	100.759959 
1153.000000	100.813841 
1152.000000	100.867414 
1151.000000	100.919699 
1150.000000	100.970149 
1149.000000	101.018524 
1148.000000	101.064181 
1147.000000	101.105690 
1146.000000	101.141262 
1145.000000	101.170873 
1144.000000	101.196742 
1143.000000	101.221704 
1142.000000	101.245880 
1141.000000	101.268243 
1140.000000	101.287984 
1139.000000	101.305866 
1138.000000	101.322627 
1137.000000	101.340031 
1136.000000	101.358819 
1135.000000	101.377820 
1134.000000	101.393914 
1133.000000	101.407217 
1132.000000	101.420831 
1131.000000	101.435875 
1130.000000	101.449298 
1129.000000	101.458525 
1128.000000	101.463866 
1127.000000	101.466512 
1126.000000	101.466369 
1125.000000	101.463317 
1124.000000	101.458096 
1123.000000	101.450824 
1122.000000	101.440668 
1121.000000	101.427602 
1120.000000	101.413822 
1119.000000	101.402902 
1118.000000	101.396226 
1117.000000	101.391482 
1116.000000	101.384544 
1115.000000	101.373910 
1114.000000	101.362299 
1113.000000	101.353859 
1112.000000	101.349234 
1111.000000	101.345729 
1110.000000	101.341438 
1109.000000	101.337838 
1108.000000	101.337099 
1107.000000	101.339054 
1106.000000	101.342153 
1105.000000	101.346611 
1104.000000	101.353955 
1103.000000	101.365113 
1102.000000	101.379156 
1101.000000	101.394891 
1100.000000	101.412224 
1099.000000	101.430654 
1098.000000	101.446771 
1097.000000	101.455640 
1096.000000	101.455831 
1095.000000	101.451134 
1094.000000	101.448297 
1093.000000	101.452589 
1092.000000	101.465249 
1091.000000	101.481485 
1090.000000	101.493239 
1089.000000	101.496386 
1088.000000	101.494836 
1087.000000	101.494908 
1086.000000	101.497936 
1085.000000	101.501750 
1084.000000	101.505112 
1083.000000	101.508402 
1082.000000	101.511979 
1081.000000	101.518106 
1080.000000	101.529622 
1079.000000	101.544785 
1078.000000	101.556110 
1077.000000	101.557922 
1076.000000	101.551675 
1075.000000	101.543426 
1074.000000	101.537084 
1073.000000	101.532006 
1072.000000	101.524639 
1071.000000	101.512598 
1070.000000	101.498365 
1069.000000	101.488327 
1068.000000	101.486921 
1067.000000	101.492857 
1066.000000	101.502275 
1065.000000	101.513934 
1064.000000	101.528716 
1063.000000	101.545500 
1062.000000	101.560330 
1061.000000	101.571059 
1060.000000	101.580262 
1059.000000	101.592302 
1058.000000	101.607108 
1057.000000	101.619172 
1056.000000	101.623106 
1055.000000	101.619863 
1054.000000	101.615524 
1053.000000	101.614570 
1052.000000	101.615667 
1051.000000	101.614618 
1050.000000	101.610255 
1049.000000	101.604986 
1048.000000	101.600503 
1047.000000	101.594877 
1046.000000	101.585817 
1045.000000	101.574039 
1044.000000	101.562070 
1043.000000	101.550436 
1042.000000	101.536750 
1041.000000	101.520586 
1040.000000	101.506710 
1039.000000	101.499390 
1038.000000	101.495671 
1037.000000	101.486921 
1036.000000	101.468586 
1035.000000	101.443433 
1034.000000	101.417446 
1033.000000	101.394033 
1032.000000	101.373267 
1031.000000	101.352930 
1030.000000	101.330780 
1029.000000	101.306176 
1028.000000	101.280164 
1027.000000	101.253628 
1026.000000	101.226925 
1025.000000	101.200771 
1024.000000	101.176857 
1023.000000	101.156783 
1022.000000	101.141524 
1021.000000	101.131010 
1020.000000	101.124191 
1019.000000	101.118230 
1018.000000	101.110506 
1017.000000	101.100444 
1016.000000	101.089406 
1015.000000	101.078510 
1014.000000	101.068210 
1013.000000	101.059412 
1012.000000	101.054763 
1011.000000	101.057291 
1010.000000	101.066422 
1009.000000	101.077485 
1008.000000	101.084756 
1007.000000	101.086711 
1006.000000	101.086473 
1005.000000	101.088213 
1004.000000	101.093244 
1003.000000	101.099634 
1002.000000	101.104211 
1001.000000	101.105499 
1000.000000	101.103806 
999.000000	 101.099801 
998.000000	 101.092696 
997.000000	 101.081538 
996.000000	 101.067829 
995.000000	 101.054716 
994.000000	 101.042652 
993.000000	 101.029062 
992.000000	 101.011848 
991.000000	 100.991892 
990.000000	 100.971412 
989.000000	 100.951766 
988.000000	 100.933837 
987.000000	 100.918173 
986.000000	 100.904345 
985.000000	 100.891304 
984.000000	 100.878548 
983.000000	 100.865817 
982.000000	 100.852227 
981.000000	 100.837135 
980.000000	 100.820803 
979.000000	 100.802683 
978.000000	 100.781655 
977.000000	 100.758624 
976.000000	 100.738191 
975.000000	 100.723600 
974.000000	 100.713992 
973.000000	 100.706434 
972.000000	 100.700521 
971.000000	 100.697541 
970.000000	 100.699234 
969.000000	 100.706958 
968.000000	 100.722074 
967.000000	 100.744724 
966.000000	 100.772666 
965.000000	 100.802612 
964.000000	 100.832891 
963.000000	 100.864648 
962.000000	 100.900053 
961.000000	 100.938320 
960.000000	 100.975561 
959.000000	 101.008129 
958.000000	 101.034832 
957.000000	 101.055741 
956.000000	 101.071405 
955.000000	 101.082801 
954.000000	 101.090693 
953.000000	 101.095128 
952.000000	 101.097059 
951.000000	 101.098370 
950.000000	 101.099801 
949.000000	 101.098632 
948.000000	 101.092267 
947.000000	 101.080846 
946.000000	 101.067376 
945.000000	 101.054954 
944.000000	 101.046037 
943.000000	 101.041102 
942.000000	 101.038718 
941.000000	 101.035499 
940.000000	 101.029062 
939.000000	 101.018786 
938.000000	 101.005506 
937.000000	 100.990605 
936.000000	 100.975871 
935.000000	 100.962591 
934.000000	 100.950026 
933.000000	 100.936555 
932.000000	 100.921082 
931.000000	 100.903582 
930.000000	 100.884008 
929.000000	 100.863361 
928.000000	 100.843620 
927.000000	 100.825738 
926.000000	 100.808119 
925.000000	 100.788784 
924.000000	 100.767469 
923.000000	 100.744700 
922.000000	 100.719356 
921.000000	 100.689625 
920.000000	 100.655555 
919.000000	 100.619268 
918.000000	 100.583148 
917.000000	 100.547909 
916.000000	 100.513124 
915.000000	 100.478839 
914.000000	 100.446295 
913.000000	 100.416660 
912.000000	 100.389933 
911.000000	 100.365567 
910.000000	 100.343894 
909.000000	 100.325918 
908.000000	 100.312495 
907.000000	 100.303435 
906.000000	 100.296115 
905.000000	 100.286436 
904.000000	 100.272107 
903.000000	 100.255036 
902.000000	 100.238490 
901.000000	 100.223159 
900.000000	 100.207448 
899.000000	 100.190019 
898.000000	 100.170230 
897.000000	 100.147342 
896.000000	 100.122141 
895.000000	 100.097584 
894.000000	 100.075721 
893.000000	 100.055170 
892.000000	 100.032854 
891.000000	 100.007581 
890.000000	 99.979758  
889.000000	 99.949860  
888.000000	 99.918365  
887.000000	 99.886655  
886.000000	 99.857139  
885.000000	 99.831771  
884.000000	 99.810051  
883.000000	 99.789667  
882.000000	 99.769353  
881.000000	 99.750995  
880.000000	 99.738693  
879.000000	 99.734115  
878.000000	 99.732851  
877.000000	 99.727058  
876.000000	 99.711394  
875.000000	 99.686932  
874.000000	 99.659538  
873.000000	 99.635124  
872.000000	 99.616312  
871.000000	 99.601602  
870.000000	 99.587416  
869.000000	 99.572134  
868.000000	 99.556732  
867.000000	 99.542927  
866.000000	 99.530267  
865.000000	 99.516987  
864.000000	 99.501800  
863.000000	 99.484801  
862.000000	 99.467134  
861.000000	 99.450182  
860.000000	 99.435210  
859.000000	 99.422049  
858.000000	 99.409103  
857.000000	 99.394106  
856.000000	 99.375319  
855.000000	 99.353003  
854.000000	 99.329566  
853.000000	 99.308061  
852.000000	 99.290490  
851.000000	 99.277400  
850.000000	 99.266242  
849.000000	 99.252653  
848.000000	 99.234461  
847.000000	 99.213790  
846.000000	 99.194192  
845.000000	 99.176764  
844.000000	 99.160766  
843.000000	 99.146056  
842.000000	 99.133086  
841.000000	 99.119806  
840.000000	 99.101924  
839.000000	 99.077534  
838.000000	 99.050450  
837.000000	 99.028062  
836.000000	 99.014759  
835.000000	 99.007511  
834.000000	 98.998928  
833.000000	 98.984599  
832.000000	 98.966908  
831.000000	 98.950099  
830.000000	 98.933148  
829.000000	 98.911952  
828.000000	 98.887157  
827.000000	 98.864531  
826.000000	 98.846936  
825.000000	 98.831105  
824.000000	 98.813366  
823.000000	 98.793578  
822.000000	 98.773145  
821.000000	 98.752427  
820.000000	 98.732066  
819.000000	 98.712158  
818.000000	 98.691678  
817.000000	 98.670220  
816.000000	 98.649168  
815.000000	 98.629713  
814.000000	 98.610758  
813.000000	 98.590922  
812.000000	 98.570179  
811.000000	 98.549342  
810.000000	 98.529052  
809.000000	 98.510456  
808.000000	 98.494267  
807.000000	 98.479294  
806.000000	 98.461866  
805.000000	 98.439073  
804.000000	 98.412537  
803.000000	 98.387265  
802.000000	 98.366832  
801.000000	 98.349261  
800.000000	 98.329782  
799.000000	 98.306965  
798.000000	 98.283123  
797.000000	 98.259568  
796.000000	 98.236131  
795.000000	 98.214030  
794.000000	 98.194670  
793.000000	 98.176431  
792.000000	 98.157286  
791.000000	 98.138856  
790.000000	 98.123860  
789.000000	 98.111367  
788.000000	 98.098373  
787.000000	 98.084354  
786.000000	 98.070716  
785.000000	 98.057961  
784.000000	 98.045063  
783.000000	 98.030495  
782.000000	 98.012900  
781.000000	 97.991394  
780.000000	 97.967338  
779.000000	 97.942829  
778.000000	 97.918248  
777.000000	 97.892212  
776.000000	 97.865343  
775.000000	 97.840762  
774.000000	 97.820305  
773.000000	 97.801399  
772.000000	 97.779154  
771.000000	 97.751188  
770.000000	 97.719264  
769.000000	 97.687530  
768.000000	 97.658777  
767.000000	 97.631716  
766.000000	 97.602915  
765.000000	 97.571325  
764.000000	 97.540020  
763.000000	 97.512483  
762.000000	 97.488832  
761.000000	 97.466373  
760.000000	 97.443485  
759.000000	 97.420883  
758.000000	 97.399473  
757.000000	 97.378420  
756.000000	 97.356343  
755.000000	 97.334027  
754.000000	 97.314167  
753.000000	 97.297549  
752.000000	 97.281599  
751.000000	 97.262430  
750.000000	 97.238922  
749.000000	 97.212767  
748.000000	 97.186565  
747.000000	 97.162318  
746.000000	 97.140312  
745.000000	 97.120118  
744.000000	 97.101330  
743.000000	 97.083806  
742.000000	 97.066617  
741.000000	 97.047591  
740.000000	 97.024726  
739.000000	 96.998071  
738.000000	 96.969819  
737.000000	 96.942305  
736.000000	 96.916246  
735.000000	 96.890425  
734.000000	 96.864056  
733.000000	 96.837520  
732.000000	 96.809220  
731.000000	 96.776413  
730.000000	 96.739244  
729.000000	 96.703100  
728.000000	 96.673297  
727.000000	 96.651434  
726.000000	 96.636581  
725.000000	 96.626710  
724.000000	 96.617245  
723.000000	 96.602058  
722.000000	 96.580147  
721.000000	 96.560883  
720.000000	 96.559143  
719.000000	 96.580243  
718.000000	 96.610999  
717.000000	 96.632289  
716.000000	 96.639132  
715.000000	 96.640324  
714.000000	 96.641921  
713.000000	 96.640539  
712.000000	 96.632027  
711.000000	 96.614551  
710.000000	 96.586346  
709.000000	 96.546316  
708.000000	 96.498131  
707.000000	 96.446061  
706.000000	 96.390581  
705.000000	 96.329760  
704.000000	 96.265554  
703.000000	 96.205663  
702.000000	 96.158981  
701.000000	 96.129941  
700.000000	 96.119546  
699.000000	 96.131372  
698.000000	 96.169543  
697.000000	 96.229267  
696.000000	 96.293759  
695.000000	 96.345496  
694.000000	 96.376967  
693.000000	 96.390867  
692.000000	 96.393060  
691.000000	 96.388888  
690.000000	 96.382904  
689.000000	 96.379089  
688.000000	 96.378493  
687.000000	 96.377730  
686.000000	 96.372914  
685.000000	 96.363902  
684.000000	 96.355628  
683.000000	 96.351122  
682.000000	 96.348905  
681.000000	 96.349596  
680.000000	 96.352529  
679.000000	 96.352815  
678.000000	 96.351194  
677.000000	 96.354937  
676.000000	 96.361804  
675.000000	 96.365261  
674.000000	 96.377849  
673.000000	 96.403145  
672.000000	 96.378707  
671.000000	 96.231532  
670.000000	 96.014404  
669.000000	 95.901918  
668.000000	 96.007370  
667.000000	 96.261096  
666.000000	 96.498942  
665.000000	 96.619892  
664.000000	 96.634864  
663.000000	 96.606326  
662.000000	 96.578311  
661.000000	 96.557164  
660.000000	 96.537733  
659.000000	 96.522521  
658.000000	 96.513652  
657.000000	 96.505594  
656.000000	 96.496295  
655.000000	 96.492266  
654.000000	 96.498847  
653.000000	 96.511459  
652.000000	 96.522784  
651.000000	 96.530652  
650.000000	 96.539139  
649.000000	 96.557641  
648.000000	 96.590089  
647.000000	 96.631550  
646.000000	 96.673965  
645.000000	 96.712994  
644.000000	 96.749186  
643.000000	 96.782517  
642.000000	 96.810722  
641.000000	 96.833515  
640.000000	 96.854615  
639.000000	 96.877479  
638.000000	 96.902513  
637.000000	 96.928477  
636.000000	 96.954989  
635.000000	 96.981167  
634.000000	 97.005391  
633.000000	 97.026634  
632.000000	 97.044515  
631.000000	 97.059416  
630.000000	 97.072601  
629.000000	 97.086405  
628.000000	 97.103548  
627.000000	 97.123479  
626.000000	 97.140693  
625.000000	 97.149038  
624.000000	 97.149229  
623.000000	 97.149109  
622.000000	 97.154211  
621.000000	 97.159266  
620.000000	 97.152757  
619.000000	 97.133493  
618.000000	 97.120046  
617.000000	 97.135090  
616.000000	 97.179079  
615.000000	 97.228169  
614.000000	 97.259926  
613.000000	 97.274136  
612.000000	 97.284770  
611.000000	 97.301006  
610.000000	 97.321939  
609.000000	 97.342705  
608.000000	 97.361779  
607.000000	 97.379946  
606.000000	 97.396850  
605.000000	 97.411584  
604.000000	 97.426104  
603.000000	 97.444224  
602.000000	 97.466874  
601.000000	 97.491478  
600.000000	 97.515940  
599.000000	 97.539567  
598.000000	 97.561168  
597.000000	 97.579050  
596.000000	 97.593665  
595.000000	 97.607922  
594.000000	 97.625184  
593.000000	 97.645878  
592.000000	 97.667932  
591.000000	 97.689914  
590.000000	 97.712159  
589.000000	 97.733807  
588.000000	 97.752809  
587.000000	 97.769832  
586.000000	 97.789525  
585.000000	 97.815871  
584.000000	 97.847175  
583.000000	 97.876381  
582.000000	 97.898650  
581.000000	 97.916841  
580.000000	 97.937250  
579.000000	 97.961974  
578.000000	 97.990059  
577.000000	 98.022365  
576.000000	 98.058509  
575.000000	 98.092317  
574.000000	 98.118543  
573.000000	 98.140621  
572.000000	 98.165059  
571.000000	 98.191952  
570.000000	 98.216962  
569.000000	 98.240303  
568.000000	 98.266029  
567.000000	 98.295044  
566.000000	 98.322939  
565.000000	 98.346018  
564.000000	 98.368477  
563.000000	 98.398780  
562.000000	 98.439240  
561.000000	 98.481774  
560.000000	 98.516702  
559.000000	 98.541903  
558.000000	 98.562026  
557.000000	 98.583984  
556.000000	 98.612976  
555.000000	 98.648858  
554.000000	 98.685050  
553.000000	 98.714590  
552.000000	 98.737359  
551.000000	 98.760128  
550.000000	 98.788905  
549.000000	 98.823285  
548.000000	 98.858499  
547.000000	 98.891806  
546.000000	 98.924350  
545.000000	 98.955869  
544.000000	 98.983097  
543.000000	 99.005556  
542.000000	 99.029731  
541.000000	 99.061965  
540.000000	 99.100494  
539.000000	 99.138903  
538.000000	 99.174594  
537.000000	 99.210953  
536.000000	 99.250435  
535.000000	 99.289774  
534.000000	 99.323892  
533.000000	 99.353599  
532.000000	 99.386310  
531.000000	 99.427771  
530.000000	 99.474453  
529.000000	 99.516797  
528.000000	 99.549603  
527.000000	 99.577450  
526.000000	 99.608874  
525.000000	 99.648022  
524.000000	 99.692392  
523.000000	 99.737763  
522.000000	 99.784040  
521.000000	 99.832916  
520.000000	 99.882006  
519.000000	 99.925065  
518.000000	 99.961924  
517.000000	 100.001001 
516.000000	 100.047564 
515.000000	 100.096058 
514.000000	 100.139164 
513.000000	 100.178527 
512.000000	 100.218701 
511.000000	 100.257873 
510.000000	 100.292348 
509.000000	 100.325345 
508.000000	 100.363659 
507.000000	 100.408363 
506.000000	 100.452804 
505.000000	 100.488996 
504.000000	 100.515937 
503.000000	 100.545167 
502.000000	 100.594997 
501.000000	 100.671100 
500.000000	 100.755548 
499.000000	 100.824666 
498.000000	 100.874423 
497.000000	 100.918197 
496.000000	 100.964713 
495.000000	 101.010775 
494.000000	 101.053977 
493.000000	 101.097369 
492.000000	 101.142287 
491.000000	 101.186871 
490.000000	 101.231622 
489.000000	 101.280355 
488.000000	 101.335549 
487.000000	 101.396203 
486.000000	 101.457715 
485.000000	 101.513099 
484.000000	 101.558899 
483.000000	 101.601386 
482.000000	 101.650834 
481.000000	 101.708316 
480.000000	 101.762890 
479.000000	 101.803469 
478.000000	 101.829862 
477.000000	 101.850795 
476.000000	 101.875543 
475.000000	 101.908898 
474.000000	 101.952791 
473.000000	 102.006387 
472.000000	 102.061986 
471.000000	 102.106285 
470.000000	 102.135753 
469.000000	 102.166724 
468.000000	 102.218937 
467.000000	 102.290105 
466.000000	 102.359604 
465.000000	 102.412629 
464.000000	 102.449369 
463.000000	 102.476382 
462.000000	 102.503705 
461.000000	 102.540850 
460.000000	 102.583932 
459.000000	 102.617931 
458.000000	 102.643013 
457.000000	 102.679920 
456.000000	 102.738332 
455.000000	 102.801966 
454.000000	 102.857470 
453.000000	 102.910017 
452.000000	 102.960014 
451.000000	 102.995872 
450.000000	 103.020286 
449.000000	 103.050994 
448.000000	 103.088307 
447.000000	 103.115272 
446.000000	 103.131675 
445.000000	 103.155541 
444.000000	 103.191304 
443.000000	 103.226113 
442.000000	 103.255677 
441.000000	 103.286504 
440.000000	 103.314948 
439.000000	 103.331828 
438.000000	 103.341460 
437.000000	 103.361630 
436.000000	 103.400850 
435.000000	 103.450322 
434.000000	 103.491473 
433.000000	 103.516602 
432.000000	 103.536200 
431.000000	 103.567457 
430.000000	 103.621912 
429.000000	 103.689837 
428.000000	 103.739762 
427.000000	 103.743958 
426.000000	 103.700661 
425.000000	 103.626275 
424.000000	 103.548240 
423.000000	 103.496909 
422.000000	 103.446388 
421.000000	 103.303980 
420.000000	 103.075146 
419.000000	 102.977705 
418.000000	 103.207349 
417.000000	 103.628563 
416.000000	 103.910422 
415.000000	 103.934741 
414.000000	 103.863072 
413.000000	 103.831887 
412.000000	 103.805875 
411.000000	 103.715085 
410.000000	 103.582024 
409.000000	 103.484797 
408.000000	 103.454184 
407.000000	 103.449344 
406.000000	 103.443098 
405.000000	 103.467082 
404.000000	 103.513693 
403.000000	 103.503417 
402.000000	 103.418445 
401.000000	 103.288364 
400.000000	 102.984666 

